[nm];[A];
;Probe 1;
300.0;4.0115
300.1;4.0678
300.2;8.0000
300.3;3.6995
300.4;4.2394
300.5;3.6158
300.6;4.7006
300.7;4.2252
300.8;4.9074
300.9;3.6938
301.0;3.6120
301.1;3.5125
301.2;4.0133
301.3;4.0801
301.4;3.8452
301.5;8.0000
301.6;4.0018
301.7;3.8223
301.8;3.6392
301.9;3.9545
302.0;4.4087
302.1;8.0000
302.2;3.9917
302.3;3.9143
302.4;3.5096
302.5;8.0000
302.6;3.7650
302.7;8.0000
302.8;3.8514
302.9;8.0000
303.0;4.6558
303.1;8.0000
303.2;3.7393
303.3;8.0000
303.4;8.0000
303.5;4.3926
303.6;4.7612
303.7;8.0000
303.8;8.0000
303.9;3.6169
304.0;3.6382
304.1;8.0000
304.2;3.7456
304.3;4.0530
304.4;3.7887
304.5;4.2573
304.6;3.7553
304.7;3.8222
304.8;4.9855
304.9;8.0000
305.0;3.5203
305.1;8.0000
305.2;3.4919
305.3;3.4712
305.4;8.0000
305.5;3.6477
305.6;4.0680
305.7;8.0000
305.8;4.6385
305.9;8.0000
306.0;8.0000
306.1;4.7955
306.2;8.0000
306.3;8.0000
306.4;3.6235
306.5;3.8003
306.6;3.7978
306.7;4.1788
306.8;4.4111
306.9;3.9439
307.0;3.7086
307.1;8.0000
307.2;8.0000
307.3;3.3835
307.4;4.0373
307.5;8.0000
307.6;3.8021
307.7;3.5317
307.8;8.0000
307.9;8.0000
308.0;8.0000
308.1;3.6447
308.2;3.4274
308.3;4.7914
308.4;3.8001
308.5;8.0000
308.6;5.4039
308.7;5.0912
308.8;3.9626
308.9;3.6865
309.0;3.5337
309.1;8.0000
309.2;4.0276
309.3;4.1309
309.4;8.0000
309.5;4.5474
309.6;3.5193
309.7;8.0000
309.8;3.4995
309.9;8.0000
310.0;8.0000
310.1;8.0000
310.2;8.0000
310.3;3.8104
310.4;8.0000
310.5;8.0000
310.6;8.0000
310.7;3.8496
310.8;3.8738
310.9;3.5348
311.0;3.3649
311.1;4.0459
311.2;3.6613
311.3;3.6883
311.4;8.0000
311.5;8.0000
311.6;3.4033
311.7;8.0000
311.8;8.0000
311.9;3.8710
312.0;8.0000
312.1;8.0000
312.2;8.0000
312.3;8.0000
312.4;8.0000
312.5;3.6654
312.6;4.1404
312.7;3.5300
312.8;3.5529
312.9;8.0000
313.0;8.0000
313.1;4.1723
313.2;8.0000
313.3;8.0000
313.4;8.0000
313.5;4.2662
313.6;4.5347
313.7;8.0000
313.8;4.0449
313.9;4.1484
314.0;8.0000
314.1;8.0000
314.2;8.0000
314.3;8.0000
314.4;8.0000
314.5;8.0000
314.6;8.0000
314.7;8.0000
314.8;8.0000
314.9;8.0000
315.0;8.0000
315.1;8.0000
315.2;3.6601
315.3;8.0000
315.4;3.8145
315.5;3.6174
315.6;8.0000
315.7;8.0000
315.8;8.0000
315.9;8.0000
316.0;4.3998
316.1;8.0000
316.2;8.0000
316.3;3.7970
316.4;8.0000
316.5;8.0000
316.6;8.0000
316.7;8.0000
316.8;3.9082
316.9;8.0000
317.0;8.0000
317.1;8.0000
317.2;4.7630
317.3;8.0000
317.4;8.0000
317.5;4.4725
317.6;3.8363
317.7;4.2858
317.8;8.0000
317.9;8.0000
318.0;8.0000
318.1;8.0000
318.2;8.0000
318.3;3.5577
318.4;8.0000
318.5;4.3097
318.6;8.0000
318.7;4.3438
318.8;4.3948
318.9;3.5608
319.0;8.0000
319.1;8.0000
319.2;3.9839
319.3;8.0000
319.4;8.0000
319.5;8.0000
319.6;8.0000
319.7;4.5043
319.8;8.0000
319.9;4.3628
320.0;2.1326
320.1;1.9963
320.2;8.0000
320.3;2.1731
320.4;8.0000
320.5;8.0000
320.6;2.4100
320.7;8.0000
320.8;8.0000
320.9;2.1613
321.0;8.0000
321.1;2.4300
321.2;2.6322
321.3;2.0831
321.4;8.0000
321.5;2.2496
321.6;3.8485
321.7;2.1786
321.8;8.0000
321.9;2.1267
322.0;8.0000
322.1;8.0000
322.2;8.0000
322.3;8.0000
322.4;8.0000
322.5;2.9267
322.6;8.0000
322.7;8.0000
322.8;2.1839
322.9;8.0000
323.0;8.0000
323.1;8.0000
323.2;8.0000
323.3;8.0000
323.4;8.0000
323.5;8.0000
323.6;8.0000
323.7;8.0000
323.8;8.0000
323.9;8.0000
324.0;2.8429
324.1;8.0000
324.2;2.5488
324.3;8.0000
324.4;8.0000
324.5;2.4301
324.6;3.2062
324.7;8.0000
324.8;2.9814
324.9;8.0000
325.0;8.0000
325.1;2.6675
325.2;8.0000
325.3;3.3783
325.4;3.0393
325.5;8.0000
325.6;8.0000
325.7;3.2907
325.8;8.0000
325.9;2.7442
326.0;8.0000
326.1;8.0000
326.2;8.0000
326.3;8.0000
326.4;8.0000
326.5;3.6243
326.6;8.0000
326.7;8.0000
326.8;3.3361
326.9;2.1947
327.0;2.3816
327.1;8.0000
327.2;8.0000
327.3;2.3335
327.4;8.0000
327.5;8.0000
327.6;8.0000
327.7;8.0000
327.8;2.6086
327.9;3.1561
328.0;4.1810
328.1;8.0000
328.2;8.0000
328.3;2.2669
328.4;2.1928
328.5;2.4866
328.6;8.0000
328.7;2.7761
328.8;8.0000
328.9;3.5899
329.0;8.0000
329.1;2.4175
329.2;8.0000
329.3;3.3166
329.4;3.0737
329.5;2.6649
329.6;8.0000
329.7;8.0000
329.8;8.0000
329.9;8.0000
330.0;2.8506
330.1;2.3249
330.2;8.0000
330.3;2.9970
330.4;8.0000
330.5;2.8302
330.6;4.3179
330.7;8.0000
330.8;8.0000
330.9;3.4759
331.0;2.7821
331.1;8.0000
331.2;8.0000
331.3;2.3002
331.4;2.5714
331.5;8.0000
331.6;8.0000
331.7;8.0000
331.8;8.0000
331.9;2.3581
332.0;3.2742
332.1;2.7447
332.2;8.0000
332.3;8.0000
332.4;8.0000
332.5;8.0000
332.6;8.0000
332.7;8.0000
332.8;8.0000
332.9;8.0000
333.0;8.0000
333.1;8.0000
333.2;8.0000
333.3;8.0000
333.4;2.6404
333.5;8.0000
333.6;3.0678
333.7;8.0000
333.8;2.6163
333.9;8.0000
334.0;8.0000
334.1;8.0000
334.2;8.0000
334.3;8.0000
334.4;8.0000
334.5;8.0000
334.6;8.0000
334.7;8.0000
334.8;8.0000
334.9;2.8999
335.0;8.0000
335.1;8.0000
335.2;8.0000
335.3;8.0000
335.4;2.2896
335.5;2.7608
335.6;2.9639
335.7;8.0000
335.8;3.1045
335.9;8.0000
336.0;2.7111
336.1;3.2592
336.2;8.0000
336.3;8.0000
336.4;8.0000
336.5;8.0000
336.6;2.3874
336.7;8.0000
336.8;2.3276
336.9;2.3224
337.0;3.3690
337.1;2.5769
337.2;2.7373
337.3;2.4643
337.4;2.7763
337.5;8.0000
337.6;2.4479
337.7;8.0000
337.8;2.2976
337.9;2.2937
338.0;2.2303
338.1;1.9537
338.2;2.2113
338.3;2.0996
338.4;2.4510
338.5;1.9953
338.6;1.8803
338.7;1.9804
338.8;1.8555
338.9;1.7423
339.0;2.1822
339.1;1.7674
339.2;1.7403
339.3;1.7798
339.4;1.6743
339.5;1.6691
339.6;1.8258
339.7;1.6715
339.8;1.6231
339.9;1.6139
340.0;1.6001
340.1;1.5315
340.2;1.5472
340.3;1.5367
340.4;1.5104
340.5;1.4132
340.6;1.5617
340.7;1.4554
340.8;1.3976
340.9;1.5072
341.0;1.4153
341.1;1.4532
341.2;1.3714
341.3;1.4174
341.4;1.3471
341.5;1.4064
341.6;1.3532
341.7;1.3604
341.8;1.3519
341.9;1.3439
342.0;1.3699
342.1;1.2869
342.2;1.2953
342.3;1.3214
342.4;1.2670
342.5;1.2901
342.6;1.3054
342.7;1.2678
342.8;1.3036
342.9;1.2253
343.0;1.2556
343.1;1.2361
343.2;1.2641
343.3;1.2230
343.4;1.2280
343.5;1.2341
343.6;1.2059
343.7;1.2245
343.8;1.2120
343.9;1.2160
344.0;1.2150
344.1;1.2041
344.2;1.1676
344.3;1.2090
344.4;1.2064
344.5;1.1540
344.6;1.1472
344.7;1.1619
344.8;1.1489
344.9;1.1864
345.0;1.1441
345.1;1.1653
345.2;1.1481
345.3;1.1117
345.4;1.1431
345.5;1.1297
345.6;1.1320
345.7;1.1160
345.8;1.1296
345.9;1.1133
346.0;1.0955
346.1;1.1149
346.2;1.1179
346.3;1.1159
346.4;1.1105
346.5;1.0900
346.6;1.1068
346.7;1.0896
346.8;1.0777
346.9;1.1013
347.0;1.0739
347.1;1.1072
347.2;1.0940
347.3;1.0880
347.4;1.0689
347.5;1.0806
347.6;1.0645
347.7;1.0818
347.8;1.0723
347.9;1.0598
348.0;1.0545
348.1;1.0848
348.2;1.0796
348.3;1.0412
348.4;1.0676
348.5;1.0815
348.6;1.0540
348.7;1.0863
348.8;1.0536
348.9;1.0822
349.0;1.0731
349.1;1.0445
349.2;1.0258
349.3;1.0638
349.4;1.0538
349.5;1.0690
349.6;1.0460
349.7;1.0329
349.8;1.0371
349.9;1.0608
350.0;1.0362
350.1;1.0525
350.2;1.0603
350.3;1.0354
350.4;1.0536
350.5;1.0654
350.6;1.0676
350.7;1.0376
350.8;1.0485
350.9;1.0435
351.0;1.0237
351.1;1.0309
351.2;1.0387
351.3;1.0395
351.4;1.0361
351.5;1.0488
351.6;1.0357
351.7;1.0239
351.8;1.0374
351.9;1.0296
352.0;1.0313
352.1;1.0587
352.2;1.0217
352.3;1.0352
352.4;1.0421
352.5;1.0281
352.6;1.0373
352.7;1.0411
352.8;1.0597
352.9;1.0395
353.0;1.0167
353.1;1.0457
353.2;1.0432
353.3;1.0326
353.4;1.0499
353.5;1.0421
353.6;1.0393
353.7;1.0173
353.8;1.0581
353.9;1.0423
354.0;1.0460
354.1;1.0377
354.2;1.0402
354.3;1.0280
354.4;1.0705
354.5;1.0381
354.6;1.0513
354.7;1.0155
354.8;1.0558
354.9;1.0695
355.0;1.0554
355.1;1.0577
355.2;1.0266
355.3;1.0584
355.4;1.0575
355.5;1.0539
355.6;1.0411
355.7;1.0640
355.8;1.0517
355.9;1.0610
356.0;1.0689
356.1;1.0654
356.2;1.0631
356.3;1.0851
356.4;1.0485
356.5;1.0675
356.6;1.0539
356.7;1.0714
356.8;1.0702
356.9;1.0574
357.0;1.0571
357.1;1.0719
357.2;1.0458
357.3;1.0456
357.4;1.0678
357.5;1.0680
357.6;1.0640
357.7;1.0708
357.8;1.0586
357.9;1.0808
358.0;1.0728
358.1;1.1003
358.2;1.0789
358.3;1.0911
358.4;1.0914
358.5;1.0719
358.6;1.0961
358.7;1.0885
358.8;1.0906
358.9;1.0993
359.0;1.1244
359.1;1.0872
359.2;1.0945
359.3;1.0832
359.4;1.0992
359.5;1.0740
359.6;1.0836
359.7;1.0932
359.8;1.0952
359.9;1.0943
360.0;1.0998
360.1;1.1038
360.2;1.1173
360.3;1.1272
360.4;1.1073
360.5;1.1133
360.6;1.0984
360.7;1.0889
360.8;1.0807
360.9;1.1086
361.0;1.0881
361.1;1.1319
361.2;1.0926
361.3;1.1025
361.4;1.1144
361.5;1.1295
361.6;1.1162
361.7;1.1234
361.8;1.1178
361.9;1.1169
362.0;1.1235
362.1;1.0852
362.2;1.1381
362.3;1.1039
362.4;1.1559
362.5;1.1476
362.6;1.1137
362.7;1.1083
362.8;1.1274
362.9;1.1145
363.0;1.1360
363.1;1.1175
363.2;1.1294
363.3;1.1385
363.4;1.1271
363.5;1.1176
363.6;1.1144
363.7;1.1366
363.8;1.1440
363.9;1.1370
364.0;1.1277
364.1;1.1351
364.2;1.1136
364.3;1.1259
364.4;1.0998
364.5;1.1300
364.6;1.1530
364.7;1.1444
364.8;1.0996
364.9;1.1144
365.0;1.1365
365.1;1.1552
365.2;1.1567
365.3;1.1274
365.4;1.1502
365.5;1.1505
365.6;1.1389
365.7;1.1624
365.8;1.1666
365.9;1.1555
366.0;1.1387
366.1;1.1250
366.2;1.1340
366.3;1.1177
366.4;1.1213
366.5;1.1308
366.6;1.1594
366.7;1.1314
366.8;1.1515
366.9;1.1527
367.0;1.1531
367.1;1.1184
367.2;1.1377
367.3;1.1169
367.4;1.1188
367.5;1.1369
367.6;1.1349
367.7;1.1094
367.8;1.1256
367.9;1.1173
368.0;1.1470
368.1;1.1357
368.2;1.1349
368.3;1.1367
368.4;1.1320
368.5;1.1407
368.6;1.1144
368.7;1.0874
368.8;1.1392
368.9;1.1359
369.0;1.1446
369.1;1.1104
369.2;1.0942
369.3;1.1429
369.4;1.1149
369.5;1.1362
369.6;1.1321
369.7;1.1195
369.8;1.1453
369.9;1.1273
370.0;1.1155
370.1;1.1166
370.2;1.1130
370.3;1.1173
370.4;1.1222
370.5;1.1244
370.6;1.1167
370.7;1.1353
370.8;1.1091
370.9;1.1279
371.0;1.1156
371.1;1.0830
371.2;1.1128
371.3;1.1207
371.4;1.1155
371.5;1.1270
371.6;1.1139
371.7;1.0921
371.8;1.1077
371.9;1.0979
372.0;1.1227
372.1;1.0905
372.2;1.1193
372.3;1.1270
372.4;1.1291
372.5;1.1350
372.6;1.1074
372.7;1.1128
372.8;1.1128
372.9;1.1152
373.0;1.1247
373.1;1.1223
373.2;1.1255
373.3;1.1083
373.4;1.1483
373.5;1.1025
373.6;1.1241
373.7;1.1304
373.8;1.1449
373.9;1.1265
374.0;1.1441
374.1;1.1356
374.2;1.1297
374.3;1.1232
374.4;1.1218
374.5;1.1346
374.6;1.1237
374.7;1.1313
374.8;1.1250
374.9;1.1449
375.0;1.1420
375.1;1.1226
375.2;1.1346
375.3;1.1232
375.4;1.1592
375.5;1.1474
375.6;1.1263
375.7;1.1359
375.8;1.1549
375.9;1.1484
376.0;1.1481
376.1;1.1732
376.2;1.1677
376.3;1.1619
376.4;1.1652
376.5;1.1436
376.6;1.1485
376.7;1.1523
376.8;1.1546
376.9;1.1442
377.0;1.1709
377.1;1.1515
377.2;1.1759
377.3;1.1611
377.4;1.1645
377.5;1.1654
377.6;1.1677
377.7;1.1692
377.8;1.1392
377.9;1.1735
378.0;1.1609
378.1;1.1727
378.2;1.1878
378.3;1.1787
378.4;1.1596
378.5;1.1706
378.6;1.1775
378.7;1.1780
378.8;1.2046
378.9;1.2039
379.0;1.2048
379.1;1.1909
379.2;1.2114
379.3;1.1829
379.4;1.1727
379.5;1.2074
379.6;1.1962
379.7;1.1739
379.8;1.1967
379.9;1.2052
380.0;1.2007
380.1;1.1971
380.2;1.2039
380.3;1.2029
380.4;1.2040
380.5;1.2233
380.6;1.2167
380.7;1.2091
380.8;1.2184
380.9;1.2222
381.0;1.2025
381.1;1.2167
381.2;1.2217
381.3;1.2400
381.4;1.2186
381.5;1.2064
381.6;1.2355
381.7;1.2220
381.8;1.2137
381.9;1.2370
382.0;1.2360
382.1;1.2151
382.2;1.2355
382.3;1.2591
382.4;1.2472
382.5;1.2405
382.6;1.2261
382.7;1.2186
382.8;1.2245
382.9;1.2289
383.0;1.2314
383.1;1.2218
383.2;1.2442
383.3;1.2119
383.4;1.2288
383.5;1.2408
383.6;1.2366
383.7;1.2286
383.8;1.2354
383.9;1.2143
384.0;1.2271
384.1;1.2540
384.2;1.2292
384.3;1.2336
384.4;1.2325
384.5;1.2385
384.6;1.2411
384.7;1.2462
384.8;1.2182
384.9;1.2292
385.0;1.2467
385.1;1.2131
385.2;1.2354
385.3;1.1965
385.4;1.2129
385.5;1.2263
385.6;1.2152
385.7;1.2013
385.8;1.1999
385.9;1.2052
386.0;1.2063
386.1;1.1983
386.2;1.2169
386.3;1.1882
386.4;1.2060
386.5;1.2077
386.6;1.1942
386.7;1.1953
386.8;1.1838
386.9;1.2040
387.0;1.1768
387.1;1.1784
387.2;1.1781
387.3;1.1722
387.4;1.1713
387.5;1.1916
387.6;1.1569
387.7;1.1514
387.8;1.1588
387.9;1.1428
388.0;1.1446
388.1;1.1657
388.2;1.1443
388.3;1.1547
388.4;1.1643
388.5;1.1346
388.6;1.1216
388.7;1.1328
388.8;1.1233
388.9;1.1181
389.0;1.1238
389.1;1.1122
389.2;1.1220
389.3;1.1145
389.4;1.1075
389.5;1.0820
389.6;1.0842
389.7;1.1037
389.8;1.0856
389.9;1.0799
390.0;1.0702
390.1;1.0692
390.2;1.0766
390.3;1.0581
390.4;1.0694
390.5;1.0668
390.6;1.0488
390.7;1.0424
390.8;1.0470
390.9;1.0310
391.0;1.0379
391.1;1.0219
391.2;1.0304
391.3;1.0289
391.4;1.0262
391.5;1.0218
391.6;1.0045
391.7;0.9962
391.8;0.9941
391.9;0.9949
392.0;0.9898
392.1;0.9815
392.2;0.9741
392.3;0.9660
392.4;0.9653
392.5;0.9594
392.6;0.9509
392.7;0.9616
392.8;0.9516
392.9;0.9404
393.0;0.9392
393.1;0.9355
393.2;0.9309
393.3;0.9204
393.4;0.9233
393.5;0.9157
393.6;0.9114
393.7;0.9047
393.8;0.8879
393.9;0.8985
394.0;0.8846
394.1;0.8922
394.2;0.8816
394.3;0.8805
394.4;0.8738
394.5;0.8697
394.6;0.8726
394.7;0.8587
394.8;0.8591
394.9;0.8585
395.0;0.8545
395.1;0.8516
395.2;0.8364
395.3;0.8402
395.4;0.8415
395.5;0.8213
395.6;0.8208
395.7;0.8201
395.8;0.8127
395.9;0.8067
396.0;0.7995
396.1;0.8096
396.2;0.7994
396.3;0.7978
396.4;0.7907
396.5;0.7877
396.6;0.7871
396.7;0.7735
396.8;0.7752
396.9;0.7764
397.0;0.7684
397.1;0.7663
397.2;0.7639
397.3;0.7549
397.4;0.7524
397.5;0.7472
397.6;0.7474
397.7;0.7471
397.8;0.7385
397.9;0.7361
398.0;0.7319
398.1;0.7297
398.2;0.7283
398.3;0.7215
398.4;0.7235
398.5;0.7159
398.6;0.7141
398.7;0.7101
398.8;0.7074
398.9;0.7014
399.0;0.7008
399.1;0.6973
399.2;0.6952
399.3;0.6919
399.4;0.6867
399.5;0.6834
399.6;0.6808
399.7;0.6812
399.8;0.6783
399.9;0.6726
400.0;0.6671
400.1;0.6730
400.2;0.6689
400.3;0.6635
400.4;0.6627
400.5;0.6601
400.6;0.6594
400.7;0.6534
400.8;0.6485
400.9;0.6498
401.0;0.6454
401.1;0.6412
401.2;0.6445
401.3;0.6376
401.4;0.6371
401.5;0.6375
401.6;0.6305
401.7;0.6336
401.8;0.6309
401.9;0.6291
402.0;0.6276
402.1;0.6211
402.2;0.6206
402.3;0.6181
402.4;0.6209
402.5;0.6192
402.6;0.6150
402.7;0.6132
402.8;0.6080
402.9;0.6097
403.0;0.6047
403.1;0.6026
403.2;0.6041
403.3;0.6033
403.4;0.5999
403.5;0.5976
403.6;0.5951
403.7;0.5955
403.8;0.5909
403.9;0.5919
404.0;0.5895
404.1;0.5904
404.2;0.5871
404.3;0.5863
404.4;0.5853
404.5;0.5806
404.6;0.5804
404.7;0.5766
404.8;0.5744
404.9;0.5790
405.0;0.5747
405.1;0.5748
405.2;0.5716
405.3;0.5747
405.4;0.5669
405.5;0.5736
405.6;0.5700
405.7;0.5657
405.8;0.5675
405.9;0.5653
406.0;0.5637
406.1;0.5646
406.2;0.5614
406.3;0.5612
406.4;0.5575
406.5;0.5604
406.6;0.5561
406.7;0.5570
406.8;0.5556
406.9;0.5527
407.0;0.5520
407.1;0.5497
407.2;0.5541
407.3;0.5526
407.4;0.5517
407.5;0.5507
407.6;0.5481
407.7;0.5481
407.8;0.5448
407.9;0.5473
408.0;0.5425
408.1;0.5431
408.2;0.5420
408.3;0.5403
408.4;0.5423
408.5;0.5400
408.6;0.5403
408.7;0.5376
408.8;0.5414
408.9;0.5407
409.0;0.5391
409.1;0.5390
409.2;0.5383
409.3;0.5359
409.4;0.5337
409.5;0.5356
409.6;0.5340
409.7;0.5337
409.8;0.5346
409.9;0.5325
410.0;0.5323
410.1;0.5318
410.2;0.5305
410.3;0.5330
410.4;0.5316
410.5;0.5338
410.6;0.5272
410.7;0.5275
410.8;0.5279
410.9;0.5278
411.0;0.5261
411.1;0.5288
411.2;0.5294
411.3;0.5254
411.4;0.5261
411.5;0.5245
411.6;0.5259
411.7;0.5251
411.8;0.5258
411.9;0.5270
412.0;0.5250
412.1;0.5260
412.2;0.5223
412.3;0.5251
412.4;0.5243
412.5;0.5240
412.6;0.5245
412.7;0.5237
412.8;0.5246
412.9;0.5240
413.0;0.5247
413.1;0.5214
413.2;0.5230
413.3;0.5220
413.4;0.5213
413.5;0.5246
413.6;0.5216
413.7;0.5223
413.8;0.5199
413.9;0.5236
414.0;0.5215
414.1;0.5223
414.2;0.5204
414.3;0.5235
414.4;0.5212
414.5;0.5199
414.6;0.5219
414.7;0.5201
414.8;0.5206
414.9;0.5210
415.0;0.5211
415.1;0.5222
415.2;0.5237
415.3;0.5239
415.4;0.5228
415.5;0.5215
415.6;0.5234
415.7;0.5228
415.8;0.5208
415.9;0.5195
416.0;0.5229
416.1;0.5243
416.2;0.5230
416.3;0.5240
416.4;0.5206
416.5;0.5199
416.6;0.5240
416.7;0.5235
416.8;0.5223
416.9;0.5223
417.0;0.5254
417.1;0.5234
417.2;0.5252
417.3;0.5220
417.4;0.5244
417.5;0.5240
417.6;0.5235
417.7;0.5242
417.8;0.5255
417.9;0.5228
418.0;0.5254
418.1;0.5240
418.2;0.5260
418.3;0.5264
418.4;0.5279
418.5;0.5253
418.6;0.5241
418.7;0.5268
418.8;0.5262
418.9;0.5259
419.0;0.5264
419.1;0.5263
419.2;0.5278
419.3;0.5264
419.4;0.5263
419.5;0.5262
419.6;0.5284
419.7;0.5293
419.8;0.5288
419.9;0.5289
420.0;0.5291
420.1;0.5292
420.2;0.5329
420.3;0.5314
420.4;0.5291
420.5;0.5310
420.6;0.5346
420.7;0.5305
420.8;0.5326
420.9;0.5306
421.0;0.5325
421.1;0.5312
421.2;0.5353
421.3;0.5351
421.4;0.5359
421.5;0.5327
421.6;0.5353
421.7;0.5357
421.8;0.5348
421.9;0.5354
422.0;0.5371
422.1;0.5380
422.2;0.5373
422.3;0.5370
422.4;0.5376
422.5;0.5402
422.6;0.5406
422.7;0.5400
422.8;0.5423
422.9;0.5409
423.0;0.5413
423.1;0.5417
423.2;0.5422
423.3;0.5428
423.4;0.5446
423.5;0.5464
423.6;0.5443
423.7;0.5451
423.8;0.5438
423.9;0.5442
424.0;0.5454
424.1;0.5460
424.2;0.5460
424.3;0.5462
424.4;0.5475
424.5;0.5462
424.6;0.5465
424.7;0.5481
424.8;0.5487
424.9;0.5496
425.0;0.5520
425.1;0.5519
425.2;0.5540
425.3;0.5525
425.4;0.5533
425.5;0.5526
425.6;0.5535
425.7;0.5556
425.8;0.5530
425.9;0.5545
426.0;0.5538
426.1;0.5531
426.2;0.5577
426.3;0.5579
426.4;0.5569
426.5;0.5593
426.6;0.5564
426.7;0.5593
426.8;0.5608
426.9;0.5579
427.0;0.5617
427.1;0.5602
427.2;0.5610
427.3;0.5630
427.4;0.5632
427.5;0.5659
427.6;0.5624
427.7;0.5649
427.8;0.5633
427.9;0.5668
428.0;0.5639
428.1;0.5686
428.2;0.5663
428.3;0.5681
428.4;0.5700
428.5;0.5685
428.6;0.5700
428.7;0.5725
428.8;0.5721
428.9;0.5725
429.0;0.5720
429.1;0.5732
429.2;0.5749
429.3;0.5751
429.4;0.5749
429.5;0.5738
429.6;0.5759
429.7;0.5775
429.8;0.5746
429.9;0.5796
430.0;0.5817
430.1;0.5784
430.2;0.5810
430.3;0.5805
430.4;0.5804
430.5;0.5812
430.6;0.5829
430.7;0.5822
430.8;0.5824
430.9;0.5831
431.0;0.5816
431.1;0.5889
431.2;0.5854
431.3;0.5853
431.4;0.5850
431.5;0.5880
431.6;0.5862
431.7;0.5901
431.8;0.5869
431.9;0.5925
432.0;0.5929
432.1;0.5936
432.2;0.5911
432.3;0.5923
432.4;0.5961
432.5;0.5928
432.6;0.5951
432.7;0.5933
432.8;0.5929
432.9;0.5968
433.0;0.5979
433.1;0.5995
433.2;0.6002
433.3;0.5988
433.4;0.6031
433.5;0.5995
433.6;0.6002
433.7;0.6008
433.8;0.6042
433.9;0.6031
434.0;0.6062
434.1;0.6050
434.2;0.6047
434.3;0.6074
434.4;0.6059
434.5;0.6093
434.6;0.6108
434.7;0.6084
434.8;0.6100
434.9;0.6137
435.0;0.6110
435.1;0.6115
435.2;0.6140
435.3;0.6165
435.4;0.6150
435.5;0.6163
435.6;0.6176
435.7;0.6183
435.8;0.6191
435.9;0.6191
436.0;0.6166
436.1;0.6204
436.2;0.6227
436.3;0.6203
436.4;0.6215
436.5;0.6215
436.6;0.6216
436.7;0.6273
436.8;0.6231
436.9;0.6281
437.0;0.6278
437.1;0.6260
437.2;0.6293
437.3;0.6291
437.4;0.6279
437.5;0.6299
437.6;0.6338
437.7;0.6345
437.8;0.6325
437.9;0.6350
438.0;0.6346
438.1;0.6337
438.2;0.6360
438.3;0.6364
438.4;0.6377
438.5;0.6399
438.6;0.6378
438.7;0.6384
438.8;0.6434
438.9;0.6420
439.0;0.6441
439.1;0.6451
439.2;0.6457
439.3;0.6457
439.4;0.6475
439.5;0.6453
439.6;0.6465
439.7;0.6511
439.8;0.6513
439.9;0.6471
440.0;0.6547
440.1;0.6511
440.2;0.6522
440.3;0.6556
440.4;0.6532
440.5;0.6541
440.6;0.6563
440.7;0.6576
440.8;0.6561
440.9;0.6597
441.0;0.6600
441.1;0.6608
441.2;0.6606
441.3;0.6587
441.4;0.6619
441.5;0.6602
441.6;0.6603
441.7;0.6637
441.8;0.6632
441.9;0.6640
442.0;0.6668
442.1;0.6684
442.2;0.6652
442.3;0.6711
442.4;0.6688
442.5;0.6656
442.6;0.6740
442.7;0.6692
442.8;0.6725
442.9;0.6716
443.0;0.6739
443.1;0.6749
443.2;0.6744
443.3;0.6763
443.4;0.6763
443.5;0.6784
443.6;0.6781
443.7;0.6773
443.8;0.6794
443.9;0.6777
444.0;0.6790
444.1;0.6816
444.2;0.6846
444.3;0.6826
444.4;0.6811
444.5;0.6865
444.6;0.6844
444.7;0.6856
444.8;0.6864
444.9;0.6877
445.0;0.6870
445.1;0.6906
445.2;0.6905
445.3;0.6910
445.4;0.6901
445.5;0.6921
445.6;0.6920
445.7;0.6941
445.8;0.6954
445.9;0.6985
446.0;0.6945
446.1;0.6968
446.2;0.7007
446.3;0.6982
446.4;0.7008
446.5;0.7013
446.6;0.7038
446.7;0.7034
446.8;0.7030
446.9;0.7043
447.0;0.7032
447.1;0.7068
447.2;0.7056
447.3;0.7084
447.4;0.7063
447.5;0.7103
447.6;0.7085
447.7;0.7109
447.8;0.7112
447.9;0.7119
448.0;0.7124
448.1;0.7132
448.2;0.7153
448.3;0.7145
448.4;0.7142
448.5;0.7176
448.6;0.7173
448.7;0.7207
448.8;0.7188
448.9;0.7189
449.0;0.7210
449.1;0.7218
449.2;0.7235
449.3;0.7257
449.4;0.7258
449.5;0.7267
449.6;0.7289
449.7;0.7258
449.8;0.7324
449.9;0.7272
450.0;0.7333
450.1;0.7326
450.2;0.7297
450.3;0.7327
450.4;0.7316
450.5;0.7294
450.6;0.7354
450.7;0.7345
450.8;0.7364
450.9;0.7365
451.0;0.7365
451.1;0.7395
451.2;0.7363
451.3;0.7415
451.4;0.7399
451.5;0.7435
451.6;0.7466
451.7;0.7425
451.8;0.7481
451.9;0.7450
452.0;0.7452
452.1;0.7438
452.2;0.7462
452.3;0.7467
452.4;0.7499
452.5;0.7525
452.6;0.7535
452.7;0.7530
452.8;0.7498
452.9;0.7566
453.0;0.7525
453.1;0.7545
453.2;0.7585
453.3;0.7606
453.4;0.7577
453.5;0.7583
453.6;0.7589
453.7;0.7575
453.8;0.7627
453.9;0.7641
454.0;0.7641
454.1;0.7632
454.2;0.7635
454.3;0.7634
454.4;0.7674
454.5;0.7657
454.6;0.7701
454.7;0.7697
454.8;0.7699
454.9;0.7717
455.0;0.7733
455.1;0.7715
455.2;0.7739
455.3;0.7725
455.4;0.7740
455.5;0.7765
455.6;0.7795
455.7;0.7792
455.8;0.7810
455.9;0.7773
456.0;0.7777
456.1;0.7752
456.2;0.7885
456.3;0.7819
456.4;0.7842
456.5;0.7824
456.6;0.7797
456.7;0.7856
456.8;0.7848
456.9;0.7847
457.0;0.7875
457.1;0.7893
457.2;0.7899
457.3;0.7905
457.4;0.7932
457.5;0.7933
457.6;0.7949
457.7;0.7936
457.8;0.7920
457.9;0.7958
458.0;0.7927
458.1;0.7957
458.2;0.7969
458.3;0.8015
458.4;0.7977
458.5;0.7990
458.6;0.8040
458.7;0.7974
458.8;0.7994
458.9;0.7992
459.0;0.8047
459.1;0.8045
459.2;0.8065
459.3;0.8108
459.4;0.8028
459.5;0.8061
459.6;0.8054
459.7;0.8062
459.8;0.8122
459.9;0.8078
460.0;0.8084
460.1;0.8125
460.2;0.8092
460.3;0.8123
460.4;0.8142
460.5;0.8162
460.6;0.8154
460.7;0.8170
460.8;0.8220
460.9;0.8128
461.0;0.8169
461.1;0.8199
461.2;0.8195
461.3;0.8210
461.4;0.8201
461.5;0.8226
461.6;0.8220
461.7;0.8258
461.8;0.8206
461.9;0.8280
462.0;0.8257
462.1;0.8297
462.2;0.8261
462.3;0.8281
462.4;0.8312
462.5;0.8302
462.6;0.8318
462.7;0.8318
462.8;0.8340
462.9;0.8276
463.0;0.8348
463.1;0.8328
463.2;0.8358
463.3;0.8398
463.4;0.8386
463.5;0.8358
463.6;0.8388
463.7;0.8332
463.8;0.8379
463.9;0.8433
464.0;0.8452
464.1;0.8450
464.2;0.8418
464.3;0.8419
464.4;0.8461
464.5;0.8455
464.6;0.8450
464.7;0.8433
464.8;0.8447
464.9;0.8511
465.0;0.8549
465.1;0.8516
465.2;0.8468
465.3;0.8504
465.4;0.8519
465.5;0.8502
465.6;0.8502
465.7;0.8543
465.8;0.8537
465.9;0.8551
466.0;0.8543
466.1;0.8550
466.2;0.8562
466.3;0.8515
466.4;0.8555
466.5;0.8624
466.6;0.8586
466.7;0.8622
466.8;0.8641
466.9;0.8612
467.0;0.8611
467.1;0.8645
467.2;0.8634
467.3;0.8659
467.4;0.8636
467.5;0.8681
467.6;0.8650
467.7;0.8682
467.8;0.8623
467.9;0.8682
468.0;0.8698
468.1;0.8723
468.2;0.8681
468.3;0.8747
468.4;0.8707
468.5;0.8674
468.6;0.8758
468.7;0.8679
468.8;0.8832
468.9;0.8753
469.0;0.8823
469.1;0.8723
469.2;0.8749
469.3;0.8794
469.4;0.8771
469.5;0.8741
469.6;0.8795
469.7;0.8802
469.8;0.8799
469.9;0.8799
470.0;0.8771
470.1;0.8762
470.2;0.8818
470.3;0.8779
470.4;0.8820
470.5;0.8801
470.6;0.8784
470.7;0.8820
470.8;0.8825
470.9;0.8821
471.0;0.8832
471.1;0.8818
471.2;0.8833
471.3;0.8854
471.4;0.8861
471.5;0.8844
471.6;0.8858
471.7;0.8862
471.8;0.8867
471.9;0.8878
472.0;0.8880
472.1;0.8880
472.2;0.8888
472.3;0.8889
472.4;0.8866
472.5;0.8889
472.6;0.8898
472.7;0.8941
472.8;0.8895
472.9;0.8923
473.0;0.8922
473.1;0.8945
473.2;0.8940
473.3;0.8942
473.4;0.8938
473.5;0.8933
473.6;0.8961
473.7;0.8957
473.8;0.8953
473.9;0.8964
474.0;0.8965
474.1;0.8958
474.2;0.8982
474.3;0.8982
474.4;0.8969
474.5;0.8970
474.6;0.8989
474.7;0.8993
474.8;0.8993
474.9;0.9000
475.0;0.9002
475.1;0.9000
475.2;0.8998
475.3;0.9010
475.4;0.9021
475.5;0.9011
475.6;0.9030
475.7;0.9032
475.8;0.9041
475.9;0.9021
476.0;0.9040
476.1;0.9050
476.2;0.9051
476.3;0.9042
476.4;0.9062
476.5;0.9065
476.6;0.9053
476.7;0.9054
476.8;0.9055
476.9;0.9071
477.0;0.9049
477.1;0.9060
477.2;0.9061
477.3;0.9097
477.4;0.9085
477.5;0.9086
477.6;0.9093
477.7;0.9077
477.8;0.9078
477.9;0.9111
478.0;0.9097
478.1;0.9109
478.2;0.9106
478.3;0.9128
478.4;0.9124
478.5;0.9109
478.6;0.9118
478.7;0.9118
478.8;0.9141
478.9;0.9120
479.0;0.9122
479.1;0.9136
479.2;0.9129
479.3;0.9130
479.4;0.9135
479.5;0.9149
479.6;0.9134
479.7;0.9136
479.8;0.9145
479.9;0.9141
480.0;0.9154
480.1;0.9154
480.2;0.9151
480.3;0.9147
480.4;0.9129
480.5;0.9147
480.6;0.9152
480.7;0.9155
480.8;0.9159
480.9;0.9142
481.0;0.9146
481.1;0.9155
481.2;0.9166
481.3;0.9147
481.4;0.9153
481.5;0.9161
481.6;0.9161
481.7;0.9167
481.8;0.9158
481.9;0.9170
482.0;0.9162
482.1;0.9160
482.2;0.9146
482.3;0.9175
482.4;0.9172
482.5;0.9156
482.6;0.9183
482.7;0.9181
482.8;0.9172
482.9;0.9173
483.0;0.9160
483.1;0.9165
483.2;0.9174
483.3;0.9183
483.4;0.9151
483.5;0.9181
483.6;0.9155
483.7;0.9152
483.8;0.9166
483.9;0.9162
484.0;0.9183
484.1;0.9162
484.2;0.9183
484.3;0.9152
484.4;0.9165
484.5;0.9147
484.6;0.9166
484.7;0.9163
484.8;0.9158
484.9;0.9146
485.0;0.9149
485.1;0.9136
485.2;0.9172
485.3;0.9168
485.4;0.9149
485.5;0.9152
485.6;0.9174
485.7;0.9151
485.8;0.9159
485.9;0.9169
486.0;0.9146
486.1;0.9153
486.2;0.9143
486.3;0.9141
486.4;0.9145
486.5;0.9144
486.6;0.9147
486.7;0.9166
486.8;0.9158
486.9;0.9133
487.0;0.9151
487.1;0.9137
487.2;0.9152
487.3;0.9139
487.4;0.9153
487.5;0.9134
487.6;0.9147
487.7;0.9130
487.8;0.9128
487.9;0.9141
488.0;0.9117
488.1;0.9125
488.2;0.9124
488.3;0.9130
488.4;0.9124
488.5;0.9140
488.6;0.9130
488.7;0.9127
488.8;0.9119
488.9;0.9124
489.0;0.9136
489.1;0.9120
489.2;0.9127
489.3;0.9105
489.4;0.9108
489.5;0.9095
489.6;0.9122
489.7;0.9103
489.8;0.9098
489.9;0.9093
490.0;0.9069
490.1;0.9099
490.2;0.9087
490.3;0.9094
490.4;0.9073
490.5;0.9065
490.6;0.9081
490.7;0.9051
490.8;0.9070
490.9;0.9069
491.0;0.9076
491.1;0.9078
491.2;0.9052
491.3;0.9063
491.4;0.9066
491.5;0.9038
491.6;0.9036
491.7;0.9041
491.8;0.9045
491.9;0.9022
492.0;0.9038
492.1;0.9039
492.2;0.9015
492.3;0.9018
492.4;0.9013
492.5;0.9010
492.6;0.9015
492.7;0.9015
492.8;0.9002
492.9;0.8975
493.0;0.9010
493.1;0.9008
493.2;0.8978
493.3;0.8986
493.4;0.8977
493.5;0.8979
493.6;0.8959
493.7;0.8971
493.8;0.8952
493.9;0.8957
494.0;0.8967
494.1;0.8941
494.2;0.8946
494.3;0.8925
494.4;0.8931
494.5;0.8920
494.6;0.8934
494.7;0.8921
494.8;0.8906
494.9;0.8910
495.0;0.8905
495.1;0.8895
495.2;0.8888
495.3;0.8888
495.4;0.8896
495.5;0.8870
495.6;0.8883
495.7;0.8866
495.8;0.8861
495.9;0.8868
496.0;0.8841
496.1;0.8862
496.2;0.8847
496.3;0.8849
496.4;0.8828
496.5;0.8830
496.6;0.8814
496.7;0.8816
496.8;0.8807
496.9;0.8825
497.0;0.8796
497.1;0.8804
497.2;0.8793
497.3;0.8768
497.4;0.8761
497.5;0.8758
497.6;0.8764
497.7;0.8750
497.8;0.8745
497.9;0.8740
498.0;0.8734
498.1;0.8721
498.2;0.8727
498.3;0.8731
498.4;0.8725
498.5;0.8719
498.6;0.8706
498.7;0.8704
498.8;0.8684
498.9;0.8663
499.0;0.8665
499.1;0.8663
499.2;0.8669
499.3;0.8651
499.4;0.8632
499.5;0.8645
499.6;0.8646
499.7;0.8621
499.8;0.8631
499.9;0.8611
500.0;0.8604
500.1;0.8596
500.2;0.8592
500.3;0.8594
500.4;0.8579
500.5;0.8567
500.6;0.8560
500.7;0.8559
500.8;0.8547
500.9;0.8535
501.0;0.8526
501.1;0.8528
501.2;0.8518
501.3;0.8525
501.4;0.8496
501.5;0.8511
501.6;0.8469
501.7;0.8465
501.8;0.8460
501.9;0.8474
502.0;0.8452
502.1;0.8450
502.2;0.8437
502.3;0.8421
502.4;0.8437
502.5;0.8393
502.6;0.8402
502.7;0.8391
502.8;0.8376
502.9;0.8363
503.0;0.8356
503.1;0.8352
503.2;0.8339
503.3;0.8334
503.4;0.8331
503.5;0.8318
503.6;0.8305
503.7;0.8293
503.8;0.8301
503.9;0.8289
504.0;0.8277
504.1;0.8263
504.2;0.8268
504.3;0.8255
504.4;0.8241
504.5;0.8239
504.6;0.8220
504.7;0.8206
504.8;0.8190
504.9;0.8193
505.0;0.8179
505.1;0.8165
505.2;0.8156
505.3;0.8136
505.4;0.8134
505.5;0.8128
505.6;0.8116
505.7;0.8094
505.8;0.8098
505.9;0.8077
506.0;0.8065
506.1;0.8046
506.2;0.8042
506.3;0.8031
506.4;0.8020
506.5;0.8019
506.6;0.8001
506.7;0.7991
506.8;0.7982
506.9;0.7959
507.0;0.7956
507.1;0.7930
507.2;0.7929
507.3;0.7919
507.4;0.7910
507.5;0.7890
507.6;0.7874
507.7;0.7863
507.8;0.7849
507.9;0.7832
508.0;0.7825
508.1;0.7817
508.2;0.7802
508.3;0.7791
508.4;0.7771
508.5;0.7767
508.6;0.7749
508.7;0.7740
508.8;0.7719
508.9;0.7717
509.0;0.7696
509.1;0.7702
509.2;0.7667
509.3;0.7654
509.4;0.7642
509.5;0.7623
509.6;0.7602
509.7;0.7598
509.8;0.7584
509.9;0.7570
510.0;0.7557
510.1;0.7543
510.2;0.7529
510.3;0.7512
510.4;0.7491
510.5;0.7492
510.6;0.7484
510.7;0.7457
510.8;0.7446
510.9;0.7433
511.0;0.7411
511.1;0.7391
511.2;0.7401
511.3;0.7374
511.4;0.7357
511.5;0.7340
511.6;0.7326
511.7;0.7306
511.8;0.7299
511.9;0.7280
512.0;0.7266
512.1;0.7256
512.2;0.7238
512.3;0.7213
512.4;0.7202
512.5;0.7192
512.6;0.7179
512.7;0.7163
512.8;0.7141
512.9;0.7125
513.0;0.7118
513.1;0.7096
513.2;0.7076
513.3;0.7066
513.4;0.7048
513.5;0.7033
513.6;0.7022
513.7;0.6998
513.8;0.6989
513.9;0.6980
514.0;0.6965
514.1;0.6950
514.2;0.6922
514.3;0.6911
514.4;0.6892
514.5;0.6877
514.6;0.6867
514.7;0.6844
514.8;0.6840
514.9;0.6809
515.0;0.6794
515.1;0.6778
515.2;0.6766
515.3;0.6747
515.4;0.6729
515.5;0.6713
515.6;0.6693
515.7;0.6683
515.8;0.6661
515.9;0.6641
516.0;0.6628
516.1;0.6603
516.2;0.6591
516.3;0.6580
516.4;0.6559
516.5;0.6536
516.6;0.6532
516.7;0.6502
516.8;0.6483
516.9;0.6462
517.0;0.6453
517.1;0.6435
517.2;0.6411
517.3;0.6394
517.4;0.6377
517.5;0.6360
517.6;0.6343
517.7;0.6324
517.8;0.6304
517.9;0.6289
518.0;0.6269
518.1;0.6252
518.2;0.6234
518.3;0.6213
518.4;0.6190
518.5;0.6168
518.6;0.6156
518.7;0.6135
518.8;0.6119
518.9;0.6101
519.0;0.6082
519.1;0.6068
519.2;0.6045
519.3;0.6030
519.4;0.6006
519.5;0.5983
519.6;0.5972
519.7;0.5956
519.8;0.5933
519.9;0.5906
520.0;0.5888
520.1;0.5871
520.2;0.5857
520.3;0.5828
520.4;0.5813
520.5;0.5792
520.6;0.5779
520.7;0.5762
520.8;0.5736
520.9;0.5726
521.0;0.5694
521.1;0.5676
521.2;0.5661
521.3;0.5637
521.4;0.5621
521.5;0.5595
521.6;0.5574
521.7;0.5555
521.8;0.5540
521.9;0.5513
522.0;0.5491
522.1;0.5475
522.2;0.5450
522.3;0.5438
522.4;0.5417
522.5;0.5395
522.6;0.5378
522.7;0.5355
522.8;0.5337
522.9;0.5314
523.0;0.5296
523.1;0.5277
523.2;0.5259
523.3;0.5240
523.4;0.5222
523.5;0.5194
523.6;0.5177
523.7;0.5158
523.8;0.5141
523.9;0.5121
524.0;0.5100
524.1;0.5079
524.2;0.5062
524.3;0.5038
524.4;0.5022
524.5;0.5001
524.6;0.4984
524.7;0.4969
524.8;0.4942
524.9;0.4923
525.0;0.4904
525.1;0.4885
525.2;0.4866
525.3;0.4844
525.4;0.4824
525.5;0.4806
525.6;0.4791
525.7;0.4768
525.8;0.4744
525.9;0.4727
526.0;0.4707
526.1;0.4690
526.2;0.4672
526.3;0.4651
526.4;0.4629
526.5;0.4613
526.6;0.4596
526.7;0.4574
526.8;0.4555
526.9;0.4538
527.0;0.4518
527.1;0.4495
527.2;0.4477
527.3;0.4462
527.4;0.4442
527.5;0.4428
527.6;0.4405
527.7;0.4389
527.8;0.4367
527.9;0.4350
528.0;0.4330
528.1;0.4313
528.2;0.4295
528.3;0.4269
528.4;0.4256
528.5;0.4234
528.6;0.4217
528.7;0.4197
528.8;0.4177
528.9;0.4158
529.0;0.4140
529.1;0.4118
529.2;0.4100
529.3;0.4077
529.4;0.4063
529.5;0.4041
529.6;0.4021
529.7;0.3999
529.8;0.3984
529.9;0.3961
530.0;0.3943
530.1;0.3927
530.2;0.3907
530.3;0.3885
530.4;0.3868
530.5;0.3850
530.6;0.3830
530.7;0.3812
530.8;0.3787
530.9;0.3774
531.0;0.3755
531.1;0.3733
531.2;0.3714
531.3;0.3700
531.4;0.3682
531.5;0.3660
531.6;0.3641
531.7;0.3622
531.8;0.3602
531.9;0.3588
532.0;0.3567
532.1;0.3549
532.2;0.3529
532.3;0.3513
532.4;0.3497
532.5;0.3476
532.6;0.3459
532.7;0.3438
532.8;0.3420
532.9;0.3403
533.0;0.3382
533.1;0.3367
533.2;0.3348
533.3;0.3331
533.4;0.3311
533.5;0.3293
533.6;0.3278
533.7;0.3259
533.8;0.3237
533.9;0.3223
534.0;0.3207
534.1;0.3188
534.2;0.3168
534.3;0.3154
534.4;0.3135
534.5;0.3118
534.6;0.3101
534.7;0.3084
534.8;0.3067
534.9;0.3051
535.0;0.3031
535.1;0.3011
535.2;0.2996
535.3;0.2980
535.4;0.2959
535.5;0.2945
535.6;0.2926
535.7;0.2913
535.8;0.2891
535.9;0.2878
536.0;0.2859
536.1;0.2846
536.2;0.2827
536.3;0.2811
536.4;0.2793
536.5;0.2777
536.6;0.2761
536.7;0.2744
536.8;0.2732
536.9;0.2716
537.0;0.2701
537.1;0.2683
537.2;0.2669
537.3;0.2654
537.4;0.2637
537.5;0.2624
537.6;0.2607
537.7;0.2590
537.8;0.2579
537.9;0.2561
538.0;0.2548
538.1;0.2533
538.2;0.2517
538.3;0.2504
538.4;0.2488
538.5;0.2472
538.6;0.2460
538.7;0.2445
538.8;0.2431
538.9;0.2416
539.0;0.2402
539.1;0.2389
539.2;0.2375
539.3;0.2358
539.4;0.2347
539.5;0.2331
539.6;0.2317
539.7;0.2305
539.8;0.2290
539.9;0.2274
540.0;0.2263
540.1;0.2250
540.2;0.2238
540.3;0.2226
540.4;0.2210
540.5;0.2197
540.6;0.2185
540.7;0.2172
540.8;0.2160
540.9;0.2147
541.0;0.2132
541.1;0.2119
541.2;0.2106
541.3;0.2096
541.4;0.2082
541.5;0.2071
541.6;0.2060
541.7;0.2049
541.8;0.2036
541.9;0.2021
542.0;0.2012
542.1;0.2000
542.2;0.1987
542.3;0.1975
542.4;0.1963
542.5;0.1952
542.6;0.1938
542.7;0.1927
542.8;0.1913
542.9;0.1902
543.0;0.1889
543.1;0.1878
543.2;0.1865
543.3;0.1854
543.4;0.1844
543.5;0.1833
543.6;0.1820
543.7;0.1806
543.8;0.1798
543.9;0.1785
544.0;0.1777
544.1;0.1761
544.2;0.1753
544.3;0.1739
544.4;0.1729
544.5;0.1719
544.6;0.1709
544.7;0.1696
544.8;0.1687
544.9;0.1677
545.0;0.1663
545.1;0.1652
545.2;0.1644
545.3;0.1630
545.4;0.1619
545.5;0.1611
545.6;0.1602
545.7;0.1593
545.8;0.1581
545.9;0.1572
546.0;0.1561
546.1;0.1552
546.2;0.1540
546.3;0.1529
546.4;0.1521
546.5;0.1511
546.6;0.1502
546.7;0.1493
546.8;0.1480
546.9;0.1472
547.0;0.1465
547.1;0.1452
547.2;0.1443
547.3;0.1436
547.4;0.1426
547.5;0.1417
547.6;0.1410
547.7;0.1396
547.8;0.1390
547.9;0.1379
548.0;0.1371
548.1;0.1359
548.2;0.1353
548.3;0.1346
548.4;0.1335
548.5;0.1327
548.6;0.1319
548.7;0.1311
548.8;0.1300
548.9;0.1295
549.0;0.1286
549.1;0.1276
549.2;0.1268
549.3;0.1261
549.4;0.1250
549.5;0.1241
549.6;0.1234
549.7;0.1225
549.8;0.1219
549.9;0.1213
550.0;0.1203
550.1;0.1197
550.2;0.1188
550.3;0.1182
550.4;0.1175
550.5;0.1166
550.6;0.1157
550.7;0.1151
550.8;0.1144
550.9;0.1136
551.0;0.1131
551.1;0.1123
551.2;0.1115
551.3;0.1110
551.4;0.1100
551.5;0.1095
551.6;0.1091
551.7;0.1082
551.8;0.1074
551.9;0.1070
552.0;0.1063
552.1;0.1056
552.2;0.1050
552.3;0.1046
552.4;0.1037
552.5;0.1031
552.6;0.1022
552.7;0.1020
552.8;0.1011
552.9;0.1007
553.0;0.1000
553.1;0.0994
553.2;0.0988
553.3;0.0984
553.4;0.0978
553.5;0.0971
553.6;0.0966
553.7;0.0959
553.8;0.0954
553.9;0.0949
554.0;0.0945
554.1;0.0940
554.2;0.0935
554.3;0.0928
554.4;0.0921
554.5;0.0918
554.6;0.0912
554.7;0.0907
554.8;0.0901
554.9;0.0896
555.0;0.0894
555.1;0.0887
555.2;0.0884
555.3;0.0881
555.4;0.0873
555.5;0.0868
555.6;0.0863
555.7;0.0860
555.8;0.0855
555.9;0.0852
556.0;0.0847
556.1;0.0842
556.2;0.0838
556.3;0.0830
556.4;0.0826
556.5;0.0821
556.6;0.0817
556.7;0.0813
556.8;0.0809
556.9;0.0805
557.0;0.0797
557.1;0.0794
557.2;0.0792
557.3;0.0787
557.4;0.0783
557.5;0.0778
557.6;0.0773
557.7;0.0771
557.8;0.0766
557.9;0.0761
558.0;0.0758
558.1;0.0756
558.2;0.0750
558.3;0.0746
558.4;0.0741
558.5;0.0741
558.6;0.0734
558.7;0.0731
558.8;0.0727
558.9;0.0725
559.0;0.0720
559.1;0.0715
559.2;0.0712
559.3;0.0710
559.4;0.0704
559.5;0.0703
559.6;0.0700
559.7;0.0695
559.8;0.0693
559.9;0.0687
560.0;0.0685
560.1;0.0681
560.2;0.0681
560.3;0.0674
560.4;0.0673
560.5;0.0668
560.6;0.0666
560.7;0.0663
560.8;0.0659
560.9;0.0657
561.0;0.0654
561.1;0.0650
561.2;0.0649
561.3;0.0644
561.4;0.0642
561.5;0.0637
561.6;0.0636
561.7;0.0632
561.8;0.0630
561.9;0.0625
562.0;0.0625
562.1;0.0621
562.2;0.0621
562.3;0.0616
562.4;0.0612
562.5;0.0612
562.6;0.0607
562.7;0.0604
562.8;0.0603
562.9;0.0601
563.0;0.0598
563.1;0.0595
563.2;0.0590
563.3;0.0589
563.4;0.0586
563.5;0.0584
563.6;0.0581
563.7;0.0580
563.8;0.0577
563.9;0.0574
564.0;0.0571
564.1;0.0573
564.2;0.0570
564.3;0.0564
564.4;0.0566
564.5;0.0563
564.6;0.0559
564.7;0.0556
564.8;0.0557
564.9;0.0554
565.0;0.0553
565.1;0.0551
565.2;0.0548
565.3;0.0545
565.4;0.0544
565.5;0.0544
565.6;0.0539
565.7;0.0538
565.8;0.0537
565.9;0.0534
566.0;0.0535
566.1;0.0532
566.2;0.0532
566.3;0.0526
566.4;0.0526
566.5;0.0525
566.6;0.0523
566.7;0.0522
566.8;0.0522
566.9;0.0518
567.0;0.0518
567.1;0.0514
567.2;0.0513
567.3;0.0512
567.4;0.0511
567.5;0.0510
567.6;0.0509
567.7;0.0505
567.8;0.0503
567.9;0.0502
568.0;0.0501
568.1;0.0500
568.2;0.0496
568.3;0.0498
568.4;0.0494
568.5;0.0493
568.6;0.0494
568.7;0.0491
568.8;0.0489
568.9;0.0488
569.0;0.0488
569.1;0.0489
569.2;0.0486
569.3;0.0485
569.4;0.0485
569.5;0.0482
569.6;0.0481
569.7;0.0479
569.8;0.0481
569.9;0.0480
570.0;0.0477
570.1;0.0476
570.2;0.0474
570.3;0.0473
570.4;0.0471
570.5;0.0470
570.6;0.0470
570.7;0.0468
570.8;0.0466
570.9;0.0465
571.0;0.0465
571.1;0.0464
571.2;0.0462
571.3;0.0461
571.4;0.0461
571.5;0.0459
571.6;0.0458
571.7;0.0457
571.8;0.0455
571.9;0.0454
572.0;0.0455
572.1;0.0452
572.2;0.0452
572.3;0.0452
572.4;0.0451
572.5;0.0449
572.6;0.0449
572.7;0.0448
572.8;0.0448
572.9;0.0444
573.0;0.0444
573.1;0.0441
573.2;0.0443
573.3;0.0442
573.4;0.0442
573.5;0.0439
573.6;0.0436
573.7;0.0437
573.8;0.0437
573.9;0.0438
574.0;0.0437
574.1;0.0436
574.2;0.0435
574.3;0.0434
574.4;0.0435
574.5;0.0433
574.6;0.0433
574.7;0.0432
574.8;0.0430
574.9;0.0429
575.0;0.0429
575.1;0.0429
575.2;0.0428
575.3;0.0429
575.4;0.0427
575.5;0.0428
575.6;0.0426
575.7;0.0427
575.8;0.0423
575.9;0.0424
576.0;0.0425
576.1;0.0422
576.2;0.0419
576.3;0.0420
576.4;0.0422
576.5;0.0419
576.6;0.0418
576.7;0.0418
576.8;0.0418
576.9;0.0417
577.0;0.0417
577.1;0.0417
577.2;0.0417
577.3;0.0415
577.4;0.0413
577.5;0.0413
577.6;0.0414
577.7;0.0410
577.8;0.0411
577.9;0.0410
578.0;0.0412
578.1;0.0411
578.2;0.0411
578.3;0.0409
578.4;0.0410
578.5;0.0410
578.6;0.0409
578.7;0.0407
578.8;0.0407
578.9;0.0407
579.0;0.0406
579.1;0.0403
579.2;0.0405
579.3;0.0408
579.4;0.0404
579.5;0.0402
579.6;0.0403
579.7;0.0405
579.8;0.0403
579.9;0.0401
580.0;0.0403
580.1;0.0401
580.2;0.0401
580.3;0.0402
580.4;0.0401
580.5;0.0402
580.6;0.0401
580.7;0.0400
580.8;0.0396
580.9;0.0399
581.0;0.0398
581.1;0.0397
581.2;0.0395
581.3;0.0399
581.4;0.0397
581.5;0.0398
581.6;0.0396
581.7;0.0397
581.8;0.0396
581.9;0.0395
582.0;0.0398
582.1;0.0397
582.2;0.0396
582.3;0.0397
582.4;0.0394
582.5;0.0396
582.6;0.0394
582.7;0.0393
582.8;0.0395
582.9;0.0394
583.0;0.0392
583.1;0.0394
583.2;0.0393
583.3;0.0394
583.4;0.0392
583.5;0.0393
583.6;0.0393
583.7;0.0392
583.8;0.0393
583.9;0.0390
584.0;0.0389
584.1;0.0390
584.2;0.0392
584.3;0.0388
584.4;0.0390
584.5;0.0390
584.6;0.0387
584.7;0.0391
584.8;0.0390
584.9;0.0389
585.0;0.0387
585.1;0.0387
585.2;0.0389
585.3;0.0388
585.4;0.0387
585.5;0.0387
585.6;0.0387
585.7;0.0387
585.8;0.0387
585.9;0.0386
586.0;0.0387
586.1;0.0386
586.2;0.0388
586.3;0.0384
586.4;0.0386
586.5;0.0386
586.6;0.0388
586.7;0.0384
586.8;0.0386
586.9;0.0386
587.0;0.0385
587.1;0.0384
587.2;0.0385
587.3;0.0383
587.4;0.0385
587.5;0.0384
587.6;0.0384
587.7;0.0385
587.8;0.0385
587.9;0.0385
588.0;0.0384
588.1;0.0384
588.2;0.0382
588.3;0.0380
588.4;0.0383
588.5;0.0383
588.6;0.0380
588.7;0.0382
588.8;0.0382
588.9;0.0383
589.0;0.0381
589.1;0.0380
589.2;0.0381
589.3;0.0381
589.4;0.0382
589.5;0.0378
589.6;0.0379
589.7;0.0380
589.8;0.0384
589.9;0.0381
590.0;0.0383
590.1;0.0380
590.2;0.0382
590.3;0.0380
590.4;0.0383
590.5;0.0380
590.6;0.0380
590.7;0.0381
590.8;0.0379
590.9;0.0381
591.0;0.0378
591.1;0.0379
591.2;0.0377
591.3;0.0379
591.4;0.0379
591.5;0.0378
591.6;0.0379
591.7;0.0378
591.8;0.0380
591.9;0.0377
592.0;0.0378
592.1;0.0379
592.2;0.0377
592.3;0.0379
592.4;0.0378
592.5;0.0376
592.6;0.0377
592.7;0.0376
592.8;0.0377
592.9;0.0377
593.0;0.0377
593.1;0.0376
593.2;0.0375
593.3;0.0377
593.4;0.0376
593.5;0.0376
593.6;0.0378
593.7;0.0377
593.8;0.0377
593.9;0.0376
594.0;0.0377
594.1;0.0376
594.2;0.0378
594.3;0.0377
594.4;0.0376
594.5;0.0377
594.6;0.0376
594.7;0.0376
594.8;0.0377
594.9;0.0377
595.0;0.0377
595.1;0.0376
595.2;0.0376
595.3;0.0379
595.4;0.0377
595.5;0.0377
595.6;0.0376
595.7;0.0376
595.8;0.0374
595.9;0.0375
596.0;0.0375
596.1;0.0376
596.2;0.0377
596.3;0.0376
596.4;0.0374
596.5;0.0375
596.6;0.0374
596.7;0.0377
596.8;0.0378
596.9;0.0376
597.0;0.0378
597.1;0.0375
597.2;0.0375
597.3;0.0375
597.4;0.0376
597.5;0.0377
597.6;0.0374
597.7;0.0376
597.8;0.0377
597.9;0.0377
598.0;0.0376
598.1;0.0376
598.2;0.0374
598.3;0.0375
598.4;0.0372
598.5;0.0375
598.6;0.0375
598.7;0.0374
598.8;0.0373
598.9;0.0374
599.0;0.0376
599.1;0.0375
599.2;0.0372
599.3;0.0374
599.4;0.0376
599.5;0.0373
599.6;0.0374
599.7;0.0374
599.8;0.0374
599.9;0.0374
600.0;0.0374
600.1;0.0373
600.2;0.0374
600.3;0.0373
600.4;0.0373
600.5;0.0375
600.6;0.0373
600.7;0.0374
600.8;0.0376
600.9;0.0372
601.0;0.0372
601.1;0.0376
601.2;0.0374
601.3;0.0374
601.4;0.0373
601.5;0.0374
601.6;0.0372
601.7;0.0373
601.8;0.0372
601.9;0.0374
602.0;0.0372
602.1;0.0372
602.2;0.0374
602.3;0.0374
602.4;0.0375
602.5;0.0374
602.6;0.0370
602.7;0.0372
602.8;0.0371
602.9;0.0372
603.0;0.0373
603.1;0.0373
603.2;0.0371
603.3;0.0373
603.4;0.0372
603.5;0.0375
603.6;0.0371
603.7;0.0373
603.8;0.0374
603.9;0.0372
604.0;0.0374
604.1;0.0368
604.2;0.0374
604.3;0.0372
604.4;0.0373
604.5;0.0372
604.6;0.0372
604.7;0.0374
604.8;0.0372
604.9;0.0372
605.0;0.0374
605.1;0.0374
605.2;0.0375
605.3;0.0372
605.4;0.0373
605.5;0.0373
605.6;0.0374
605.7;0.0371
605.8;0.0374
605.9;0.0374
606.0;0.0371
606.1;0.0374
606.2;0.0371
606.3;0.0373
606.4;0.0372
606.5;0.0370
606.6;0.0372
606.7;0.0371
606.8;0.0372
606.9;0.0374
607.0;0.0373
607.1;0.0373
607.2;0.0374
607.3;0.0373
607.4;0.0373
607.5;0.0373
607.6;0.0373
607.7;0.0374
607.8;0.0373
607.9;0.0372
608.0;0.0372
608.1;0.0374
608.2;0.0372
608.3;0.0371
608.4;0.0373
608.5;0.0372
608.6;0.0372
608.7;0.0374
608.8;0.0373
608.9;0.0376
609.0;0.0372
609.1;0.0373
609.2;0.0372
609.3;0.0372
609.4;0.0371
609.5;0.0370
609.6;0.0372
609.7;0.0370
609.8;0.0372
609.9;0.0373
610.0;0.0373
610.1;0.0371
610.2;0.0372
610.3;0.0372
610.4;0.0370
610.5;0.0372
610.6;0.0371
610.7;0.0370
610.8;0.0370
610.9;0.0370
611.0;0.0371
611.1;0.0372
611.2;0.0371
611.3;0.0372
611.4;0.0369
611.5;0.0373
611.6;0.0370
611.7;0.0372
611.8;0.0373
611.9;0.0371
612.0;0.0370
612.1;0.0370
612.2;0.0371
612.3;0.0369
612.4;0.0371
612.5;0.0373
612.6;0.0372
612.7;0.0370
612.8;0.0371
612.9;0.0369
613.0;0.0371
613.1;0.0370
613.2;0.0367
613.3;0.0371
613.4;0.0369
613.5;0.0371
613.6;0.0370
613.7;0.0371
613.8;0.0370
613.9;0.0369
614.0;0.0369
614.1;0.0371
614.2;0.0368
614.3;0.0369
614.4;0.0371
614.5;0.0371
614.6;0.0369
614.7;0.0369
614.8;0.0367
614.9;0.0370
615.0;0.0370
615.1;0.0371
615.2;0.0370
615.3;0.0368
615.4;0.0369
615.5;0.0367
615.6;0.0367
615.7;0.0369
615.8;0.0369
615.9;0.0370
616.0;0.0368
616.1;0.0369
616.2;0.0370
616.3;0.0368
616.4;0.0369
616.5;0.0370
616.6;0.0370
616.7;0.0371
616.8;0.0369
616.9;0.0369
617.0;0.0369
617.1;0.0367
617.2;0.0370
617.3;0.0370
617.4;0.0370
617.5;0.0368
617.6;0.0368
617.7;0.0367
617.8;0.0369
617.9;0.0370
618.0;0.0369
618.1;0.0368
618.2;0.0368
618.3;0.0368
618.4;0.0367
618.5;0.0369
618.6;0.0367
618.7;0.0367
618.8;0.0367
618.9;0.0367
619.0;0.0368
619.1;0.0368
619.2;0.0369
619.3;0.0369
619.4;0.0365
619.5;0.0368
619.6;0.0367
619.7;0.0369
619.8;0.0368
619.9;0.0366
620.0;0.0369
620.1;0.0368
620.2;0.0367
620.3;0.0367
620.4;0.0366
620.5;0.0367
620.6;0.0366
620.7;0.0367
620.8;0.0367
620.9;0.0366
621.0;0.0367
621.1;0.0365
621.2;0.0367
621.3;0.0367
621.4;0.0367
621.5;0.0366
621.6;0.0366
621.7;0.0368
621.8;0.0368
621.9;0.0366
622.0;0.0364
622.1;0.0367
622.2;0.0365
622.3;0.0365
622.4;0.0369
622.5;0.0366
622.6;0.0365
622.7;0.0366
622.8;0.0366
622.9;0.0368
623.0;0.0366
623.1;0.0368
623.2;0.0364
623.3;0.0365
623.4;0.0364
623.5;0.0365
623.6;0.0363
623.7;0.0363
623.8;0.0364
623.9;0.0365
624.0;0.0364
624.1;0.0364
624.2;0.0366
624.3;0.0365
624.4;0.0366
624.5;0.0366
624.6;0.0364
624.7;0.0362
624.8;0.0364
624.9;0.0363
625.0;0.0365
625.1;0.0366
625.2;0.0364
625.3;0.0367
625.4;0.0366
625.5;0.0366
625.6;0.0366
625.7;0.0362
625.8;0.0366
625.9;0.0362
626.0;0.0364
626.1;0.0362
626.2;0.0363
626.3;0.0365
626.4;0.0365
626.5;0.0366
626.6;0.0365
626.7;0.0366
626.8;0.0365
626.9;0.0365
627.0;0.0363
627.1;0.0362
627.2;0.0366
627.3;0.0365
627.4;0.0364
627.5;0.0365
627.6;0.0364
627.7;0.0365
627.8;0.0364
627.9;0.0364
628.0;0.0366
628.1;0.0365
628.2;0.0363
628.3;0.0365
628.4;0.0364
628.5;0.0361
628.6;0.0364
628.7;0.0363
628.8;0.0365
628.9;0.0367
629.0;0.0366
629.1;0.0366
629.2;0.0365
629.3;0.0367
629.4;0.0363
629.5;0.0366
629.6;0.0365
629.7;0.0365
629.8;0.0366
629.9;0.0364
630.0;0.0364
630.1;0.0365
630.2;0.0364
630.3;0.0364
630.4;0.0365
630.5;0.0368
630.6;0.0363
630.7;0.0365
630.8;0.0364
630.9;0.0363
631.0;0.0363
631.1;0.0363
631.2;0.0364
631.3;0.0364
631.4;0.0362
631.5;0.0364
631.6;0.0363
631.7;0.0364
631.8;0.0363
631.9;0.0364
632.0;0.0365
632.1;0.0364
632.2;0.0364
632.3;0.0365
632.4;0.0365
632.5;0.0362
632.6;0.0363
632.7;0.0362
632.8;0.0364
632.9;0.0364
633.0;0.0363
633.1;0.0363
633.2;0.0363
633.3;0.0365
633.4;0.0364
633.5;0.0364
633.6;0.0363
633.7;0.0363
633.8;0.0365
633.9;0.0365
634.0;0.0364
634.1;0.0364
634.2;0.0365
634.3;0.0363
634.4;0.0363
634.5;0.0363
634.6;0.0361
634.7;0.0363
634.8;0.0363
634.9;0.0363
635.0;0.0365
635.1;0.0363
635.2;0.0364
635.3;0.0363
635.4;0.0363
635.5;0.0364
635.6;0.0364
635.7;0.0363
635.8;0.0363
635.9;0.0364
636.0;0.0363
636.1;0.0362
636.2;0.0362
636.3;0.0363
636.4;0.0363
636.5;0.0363
636.6;0.0360
636.7;0.0364
636.8;0.0363
636.9;0.0364
637.0;0.0362
637.1;0.0364
637.2;0.0363
637.3;0.0364
637.4;0.0364
637.5;0.0362
637.6;0.0365
637.7;0.0363
637.8;0.0363
637.9;0.0363
638.0;0.0363
638.1;0.0363
638.2;0.0365
638.3;0.0364
638.4;0.0362
638.5;0.0363
638.6;0.0363
638.7;0.0364
638.8;0.0363
638.9;0.0364
639.0;0.0364
639.1;0.0364
639.2;0.0363
639.3;0.0364
639.4;0.0363
639.5;0.0362
639.6;0.0361
639.7;0.0364
639.8;0.0363
639.9;0.0363
640.0;0.0363
640.1;0.0361
640.2;0.0363
640.3;0.0363
640.4;0.0363
640.5;0.0362
640.6;0.0361
640.7;0.0364
640.8;0.0362
640.9;0.0363
641.0;0.0363
641.1;0.0364
641.2;0.0363
641.3;0.0363
641.4;0.0363
641.5;0.0363
641.6;0.0365
641.7;0.0360
641.8;0.0361
641.9;0.0364
642.0;0.0362
642.1;0.0362
642.2;0.0362
642.3;0.0362
642.4;0.0362
642.5;0.0362
642.6;0.0363
642.7;0.0364
642.8;0.0364
642.9;0.0363
643.0;0.0363
643.1;0.0361
643.2;0.0363
643.3;0.0362
643.4;0.0361
643.5;0.0362
643.6;0.0364
643.7;0.0361
643.8;0.0361
643.9;0.0362
644.0;0.0361
644.1;0.0362
644.2;0.0364
644.3;0.0364
644.4;0.0363
644.5;0.0364
644.6;0.0362
644.7;0.0365
644.8;0.0365
644.9;0.0362
645.0;0.0363
645.1;0.0363
645.2;0.0362
645.3;0.0364
645.4;0.0362
645.5;0.0363
645.6;0.0363
645.7;0.0363
645.8;0.0363
645.9;0.0362
646.0;0.0361
646.1;0.0364
646.2;0.0364
646.3;0.0363
646.4;0.0364
646.5;0.0363
646.6;0.0363
646.7;0.0362
646.8;0.0361
646.9;0.0362
647.0;0.0361
647.1;0.0359
647.2;0.0365
647.3;0.0366
647.4;0.0363
647.5;0.0362
647.6;0.0363
647.7;0.0361
647.8;0.0362
647.9;0.0362
648.0;0.0363
648.1;0.0364
648.2;0.0363
648.3;0.0361
648.4;0.0361
648.5;0.0362
648.6;0.0362
648.7;0.0362
648.8;0.0362
648.9;0.0363
649.0;0.0362
649.1;0.0364
649.2;0.0363
649.3;0.0361
649.4;0.0360
649.5;0.0363
649.6;0.0361
649.7;0.0362
649.8;0.0362
649.9;0.0363
650.0;0.0364
650.1;0.0362
650.2;0.0362
650.3;0.0362
650.4;0.0362
650.5;0.0361
650.6;0.0363
650.7;0.0361
650.8;0.0360
650.9;0.0362
651.0;0.0362
651.1;0.0361
651.2;0.0362
651.3;0.0360
651.4;0.0363
651.5;0.0362
651.6;0.0363
651.7;0.0361
651.8;0.0361
651.9;0.0362
652.0;0.0362
652.1;0.0360
652.2;0.0362
652.3;0.0361
652.4;0.0361
652.5;0.0364
652.6;0.0361
652.7;0.0362
652.8;0.0365
652.9;0.0361
653.0;0.0362
653.1;0.0362
653.2;0.0360
653.3;0.0361
653.4;0.0364
653.5;0.0361
653.6;0.0362
653.7;0.0362
653.8;0.0363
653.9;0.0362
654.0;0.0363
654.1;0.0359
654.2;0.0362
654.3;0.0361
654.4;0.0362
654.5;0.0362
654.6;0.0361
654.7;0.0362
654.8;0.0361
654.9;0.0361
655.0;0.0364
655.1;0.0361
655.2;0.0362
655.3;0.0362
655.4;0.0362
655.5;0.0360
655.6;0.0360
655.7;0.0361
655.8;0.0363
655.9;0.0362
656.0;0.0361
656.1;0.0361
656.2;0.0361
656.3;0.0362
656.4;0.0362
656.5;0.0363
656.6;0.0363
656.7;0.0360
656.8;0.0362
656.9;0.0361
657.0;0.0361
657.1;0.0362
657.2;0.0363
657.3;0.0361
657.4;0.0363
657.5;0.0363
657.6;0.0362
657.7;0.0361
657.8;0.0362
657.9;0.0361
658.0;0.0360
658.1;0.0364
658.2;0.0361
658.3;0.0363
658.4;0.0362
658.5;0.0362
658.6;0.0362
658.7;0.0360
658.8;0.0365
658.9;0.0361
659.0;0.0361
659.1;0.0363
659.2;0.0361
659.3;0.0361
659.4;0.0361
659.5;0.0362
659.6;0.0362
659.7;0.0361
659.8;0.0360
659.9;0.0361
660.0;0.0362
660.1;0.0363
660.2;0.0362
660.3;0.0362
660.4;0.0362
660.5;0.0360
660.6;0.0362
660.7;0.0362
660.8;0.0362
660.9;0.0362
661.0;0.0362
661.1;0.0362
661.2;0.0362
661.3;0.0361
661.4;0.0361
661.5;0.0361
661.6;0.0361
661.7;0.0361
661.8;0.0361
661.9;0.0363
662.0;0.0362
662.1;0.0361
662.2;0.0362
662.3;0.0362
662.4;0.0361
662.5;0.0362
662.6;0.0361
662.7;0.0363
662.8;0.0361
662.9;0.0361
663.0;0.0362
663.1;0.0363
663.2;0.0360
663.3;0.0364
663.4;0.0361
663.5;0.0361
663.6;0.0362
663.7;0.0359
663.8;0.0360
663.9;0.0360
664.0;0.0362
664.1;0.0358
664.2;0.0360
664.3;0.0362
664.4;0.0362
664.5;0.0362
664.6;0.0362
664.7;0.0363
664.8;0.0363
664.9;0.0361
665.0;0.0362
665.1;0.0364
665.2;0.0365
665.3;0.0361
665.4;0.0362
665.5;0.0360
665.6;0.0365
665.7;0.0365
665.8;0.0361
665.9;0.0363
666.0;0.0362
666.1;0.0363
666.2;0.0364
666.3;0.0364
666.4;0.0361
666.5;0.0364
666.6;0.0366
666.7;0.0365
666.8;0.0364
666.9;0.0364
667.0;0.0363
667.1;0.0364
667.2;0.0364
667.3;0.0364
667.4;0.0364
667.5;0.0363
667.6;0.0363
667.7;0.0362
667.8;0.0363
667.9;0.0364
668.0;0.0367
668.1;0.0365
668.2;0.0363
668.3;0.0362
668.4;0.0365
668.5;0.0365
668.6;0.0364
668.7;0.0365
668.8;0.0365
668.9;0.0365
669.0;0.0366
669.1;0.0364
669.2;0.0365
669.3;0.0365
669.4;0.0364
669.5;0.0366
669.6;0.0364
669.7;0.0368
669.8;0.0365
669.9;0.0366
670.0;0.0365
670.1;0.0365
670.2;0.0364
670.3;0.0365
670.4;0.0366
670.5;0.0366
670.6;0.0365
670.7;0.0368
670.8;0.0367
670.9;0.0367
671.0;0.0365
671.1;0.0366
671.2;0.0367
671.3;0.0369
671.4;0.0366
671.5;0.0368
671.6;0.0368
671.7;0.0368
671.8;0.0368
671.9;0.0368
672.0;0.0368
672.1;0.0369
672.2;0.0369
672.3;0.0370
672.4;0.0370
672.5;0.0369
672.6;0.0370
672.7;0.0370
672.8;0.0369
672.9;0.0367
673.0;0.0368
673.1;0.0368
673.2;0.0369
673.3;0.0370
673.4;0.0371
673.5;0.0369
673.6;0.0369
673.7;0.0371
673.8;0.0371
673.9;0.0371
674.0;0.0370
674.1;0.0368
674.2;0.0369
674.3;0.0371
674.4;0.0371
674.5;0.0372
674.6;0.0370
674.7;0.0372
674.8;0.0370
674.9;0.0372
675.0;0.0371
675.1;0.0370
675.2;0.0371
675.3;0.0372
675.4;0.0370
675.5;0.0372
675.6;0.0373
675.7;0.0372
675.8;0.0374
675.9;0.0371
676.0;0.0373
676.1;0.0376
676.2;0.0373
676.3;0.0373
676.4;0.0371
676.5;0.0375
676.6;0.0374
676.7;0.0373
676.8;0.0373
676.9;0.0374
677.0;0.0371
677.1;0.0373
677.2;0.0373
677.3;0.0374
677.4;0.0372
677.5;0.0373
677.6;0.0372
677.7;0.0372
677.8;0.0374
677.9;0.0372
678.0;0.0373
678.1;0.0374
678.2;0.0372
678.3;0.0372
678.4;0.0375
678.5;0.0374
678.6;0.0371
678.7;0.0374
678.8;0.0374
678.9;0.0372
679.0;0.0370
679.1;0.0373
679.2;0.0372
679.3;0.0373
679.4;0.0373
679.5;0.0374
679.6;0.0372
679.7;0.0374
679.8;0.0374
679.9;0.0373
680.0;0.0373
680.1;0.0375
680.2;0.0371
680.3;0.0372
680.4;0.0372
680.5;0.0372
680.6;0.0373
680.7;0.0374
680.8;0.0372
680.9;0.0373
681.0;0.0373
681.1;0.0372
681.2;0.0371
681.3;0.0371
681.4;0.0370
681.5;0.0373
681.6;0.0371
681.7;0.0372
681.8;0.0373
681.9;0.0373
682.0;0.0371
682.1;0.0369
682.2;0.0373
682.3;0.0371
682.4;0.0370
682.5;0.0370
682.6;0.0372
682.7;0.0371
682.8;0.0371
682.9;0.0372
683.0;0.0370
683.1;0.0369
683.2;0.0372
683.3;0.0370
683.4;0.0372
683.5;0.0370
683.6;0.0371
683.7;0.0370
683.8;0.0371
683.9;0.0370
684.0;0.0370
684.1;0.0371
684.2;0.0371
684.3;0.0371
684.4;0.0370
684.5;0.0370
684.6;0.0368
684.7;0.0371
684.8;0.0370
684.9;0.0368
685.0;0.0368
685.1;0.0369
685.2;0.0370
685.3;0.0369
685.4;0.0369
685.5;0.0367
685.6;0.0370
685.7;0.0367
685.8;0.0367
685.9;0.0367
686.0;0.0367
686.1;0.0367
686.2;0.0367
686.3;0.0367
686.4;0.0367
686.5;0.0366
686.6;0.0367
686.7;0.0366
686.8;0.0367
686.9;0.0368
687.0;0.0367
687.1;0.0366
687.2;0.0366
687.3;0.0365
687.4;0.0365
687.5;0.0363
687.6;0.0368
687.7;0.0366
687.8;0.0365
687.9;0.0364
688.0;0.0366
688.1;0.0363
688.2;0.0362
688.3;0.0364
688.4;0.0363
688.5;0.0365
688.6;0.0363
688.7;0.0363
688.8;0.0364
688.9;0.0365
689.0;0.0364
689.1;0.0363
689.2;0.0365
689.3;0.0364
689.4;0.0362
689.5;0.0365
689.6;0.0362
689.7;0.0363
689.8;0.0363
689.9;0.0364
690.0;0.0363
690.1;0.0365
690.2;0.0365
690.3;0.0363
690.4;0.0363
690.5;0.0362
690.6;0.0362
690.7;0.0360
690.8;0.0362
690.9;0.0362
691.0;0.0362
691.1;0.0361
691.2;0.0361
691.3;0.0362
691.4;0.0361
691.5;0.0361
691.6;0.0362
691.7;0.0362
691.8;0.0360
691.9;0.0362
692.0;0.0361
692.1;0.0362
692.2;0.0361
692.3;0.0361
692.4;0.0361
692.5;0.0360
692.6;0.0360
692.7;0.0360
692.8;0.0361
692.9;0.0362
693.0;0.0360
693.1;0.0359
693.2;0.0360
693.3;0.0359
693.4;0.0361
693.5;0.0362
693.6;0.0362
693.7;0.0360
693.8;0.0360
693.9;0.0361
694.0;0.0360
694.1;0.0360
694.2;0.0358
694.3;0.0359
694.4;0.0359
694.5;0.0360
694.6;0.0357
694.7;0.0360
694.8;0.0359
694.9;0.0359
695.0;0.0359
695.1;0.0360
695.2;0.0360
695.3;0.0355
695.4;0.0360
695.5;0.0359
695.6;0.0359
695.7;0.0358
695.8;0.0356
695.9;0.0358
696.0;0.0358
696.1;0.0357
696.2;0.0359
696.3;0.0359
696.4;0.0359
696.5;0.0361
696.6;0.0357
696.7;0.0359
696.8;0.0358
696.9;0.0358
697.0;0.0358
697.1;0.0358
697.2;0.0356
697.3;0.0357
697.4;0.0358
697.5;0.0358
697.6;0.0359
697.7;0.0356
697.8;0.0360
697.9;0.0359
698.0;0.0359
698.1;0.0357
698.2;0.0360
698.3;0.0359
698.4;0.0356
698.5;0.0356
698.6;0.0358
698.7;0.0357
698.8;0.0356
698.9;0.0359
699.0;0.0356
699.1;0.0356
699.2;0.0356
699.3;0.0357
699.4;0.0360
699.5;0.0356
699.6;0.0359
699.7;0.0355
699.8;0.0356
699.9;0.0355
700.0;0.0360
700.1;0.0360
700.2;0.0359
700.3;0.0360
700.4;0.0358
700.5;0.0358
700.6;0.0361
700.7;0.0359
700.8;0.0359
700.9;0.0359
701.0;0.0360
701.1;0.0360
701.2;0.0360
701.3;0.0358
701.4;0.0361
701.5;0.0359
701.6;0.0359
701.7;0.0360
701.8;0.0357
701.9;0.0360
702.0;0.0360
702.1;0.0360
702.2;0.0360
702.3;0.0359
702.4;0.0360
702.5;0.0358
702.6;0.0359
702.7;0.0359
702.8;0.0357
702.9;0.0359
703.0;0.0358
703.1;0.0358
703.2;0.0359
703.3;0.0360
703.4;0.0358
703.5;0.0357
703.6;0.0358
703.7;0.0361
703.8;0.0357
703.9;0.0361
704.0;0.0360
704.1;0.0359
704.2;0.0360
704.3;0.0362
704.4;0.0359
704.5;0.0360
704.6;0.0359
704.7;0.0361
704.8;0.0360
704.9;0.0360
705.0;0.0362
705.1;0.0358
705.2;0.0360
705.3;0.0358
705.4;0.0362
705.5;0.0359
705.6;0.0358
705.7;0.0359
705.8;0.0360
705.9;0.0358
706.0;0.0361
706.1;0.0359
706.2;0.0361
706.3;0.0359
706.4;0.0360
706.5;0.0359
706.6;0.0362
706.7;0.0359
706.8;0.0359
706.9;0.0362
707.0;0.0357
707.1;0.0361
707.2;0.0360
707.3;0.0360
707.4;0.0360
707.5;0.0359
707.6;0.0361
707.7;0.0360
707.8;0.0360
707.9;0.0359
708.0;0.0361
708.1;0.0362
708.2;0.0361
708.3;0.0359
708.4;0.0359
708.5;0.0359
708.6;0.0359
708.7;0.0360
708.8;0.0361
708.9;0.0360
709.0;0.0361
709.1;0.0360
709.2;0.0360
709.3;0.0360
709.4;0.0359
709.5;0.0361
709.6;0.0359
709.7;0.0360
709.8;0.0360
709.9;0.0362
710.0;0.0359
710.1;0.0360
710.2;0.0358
710.3;0.0361
710.4;0.0359
710.5;0.0362
710.6;0.0361
710.7;0.0360
710.8;0.0359
710.9;0.0361
711.0;0.0360
711.1;0.0360
711.2;0.0362
711.3;0.0362
711.4;0.0361
711.5;0.0360
711.6;0.0362
711.7;0.0360
711.8;0.0359
711.9;0.0361
712.0;0.0360
712.1;0.0361
712.2;0.0359
712.3;0.0357
712.4;0.0359
712.5;0.0361
712.6;0.0361
712.7;0.0359
712.8;0.0360
712.9;0.0359
713.0;0.0358
713.1;0.0360
713.2;0.0360
713.3;0.0360
713.4;0.0361
713.5;0.0361
713.6;0.0358
713.7;0.0358
713.8;0.0359
713.9;0.0360
714.0;0.0360
714.1;0.0360
714.2;0.0359
714.3;0.0358
714.4;0.0360
714.5;0.0360
714.6;0.0358
714.7;0.0362
714.8;0.0359
714.9;0.0358
715.0;0.0360
715.1;0.0358
715.2;0.0360
715.3;0.0359
715.4;0.0359
715.5;0.0359
715.6;0.0360
715.7;0.0359
715.8;0.0360
715.9;0.0360
716.0;0.0361
716.1;0.0360
716.2;0.0357
716.3;0.0360
716.4;0.0358
716.5;0.0359
716.6;0.0359
716.7;0.0358
716.8;0.0359
716.9;0.0358
717.0;0.0360
717.1;0.0357
717.2;0.0361
717.3;0.0357
717.4;0.0358
717.5;0.0357
717.6;0.0358
717.7;0.0359
717.8;0.0357
717.9;0.0358
718.0;0.0356
718.1;0.0358
718.2;0.0356
718.3;0.0357
718.4;0.0358
718.5;0.0357
718.6;0.0357
718.7;0.0358
718.8;0.0358
718.9;0.0357
719.0;0.0357
719.1;0.0357
719.2;0.0359
719.3;0.0359
719.4;0.0357
719.5;0.0358
719.6;0.0357
719.7;0.0355
719.8;0.0358
719.9;0.0355
720.0;0.0356
720.1;0.0356
720.2;0.0356
720.3;0.0357
720.4;0.0357
720.5;0.0355
720.6;0.0356
720.7;0.0357
720.8;0.0358
720.9;0.0357
721.0;0.0359
721.1;0.0357
721.2;0.0356
721.3;0.0356
721.4;0.0355
721.5;0.0357
721.6;0.0358
721.7;0.0355
721.8;0.0357
721.9;0.0357
722.0;0.0354
722.1;0.0355
722.2;0.0356
722.3;0.0355
722.4;0.0354
722.5;0.0358
722.6;0.0357
722.7;0.0357
722.8;0.0356
722.9;0.0355
723.0;0.0354
723.1;0.0356
723.2;0.0355
723.3;0.0354
723.4;0.0355
723.5;0.0355
723.6;0.0354
723.7;0.0356
723.8;0.0353
723.9;0.0356
724.0;0.0358
724.1;0.0356
724.2;0.0354
724.3;0.0354
724.4;0.0357
724.5;0.0353
724.6;0.0354
724.7;0.0355
724.8;0.0356
724.9;0.0353
725.0;0.0354
725.1;0.0356
725.2;0.0356
725.3;0.0355
725.4;0.0356
725.5;0.0353
725.6;0.0354
725.7;0.0354
725.8;0.0355
725.9;0.0354
726.0;0.0355
726.1;0.0355
726.2;0.0355
726.3;0.0355
726.4;0.0358
726.5;0.0357
726.6;0.0356
726.7;0.0355
726.8;0.0356
726.9;0.0356
727.0;0.0355
727.1;0.0353
727.2;0.0355
727.3;0.0355
727.4;0.0356
727.5;0.0355
727.6;0.0357
727.7;0.0355
727.8;0.0355
727.9;0.0355
728.0;0.0356
728.1;0.0353
728.2;0.0355
728.3;0.0353
728.4;0.0355
728.5;0.0356
728.6;0.0354
728.7;0.0354
728.8;0.0356
728.9;0.0353
729.0;0.0358
729.1;0.0354
729.2;0.0357
729.3;0.0355
729.4;0.0357
729.5;0.0354
729.6;0.0355
729.7;0.0356
729.8;0.0357
729.9;0.0354
730.0;0.0354
730.1;0.0355
730.2;0.0354
730.3;0.0356
730.4;0.0353
730.5;0.0353
730.6;0.0355
730.7;0.0356
730.8;0.0354
730.9;0.0354
731.0;0.0355
731.1;0.0354
731.2;0.0356
731.3;0.0358
731.4;0.0356
731.5;0.0355
731.6;0.0358
731.7;0.0355
731.8;0.0356
731.9;0.0355
732.0;0.0356
732.1;0.0356
732.2;0.0355
732.3;0.0357
732.4;0.0356
732.5;0.0355
732.6;0.0354
732.7;0.0352
732.8;0.0354
732.9;0.0353
733.0;0.0355
733.1;0.0357
733.2;0.0356
733.3;0.0355
733.4;0.0355
733.5;0.0354
733.6;0.0354
733.7;0.0353
733.8;0.0354
733.9;0.0355
734.0;0.0355
734.1;0.0354
734.2;0.0354
734.3;0.0356
734.4;0.0355
734.5;0.0354
734.6;0.0355
734.7;0.0353
734.8;0.0357
734.9;0.0356
735.0;0.0354
735.1;0.0354
735.2;0.0355
735.3;0.0356
735.4;0.0356
735.5;0.0355
735.6;0.0353
735.7;0.0353
735.8;0.0355
735.9;0.0354
736.0;0.0353
736.1;0.0354
736.2;0.0354
736.3;0.0353
736.4;0.0354
736.5;0.0353
736.6;0.0355
736.7;0.0354
736.8;0.0356
736.9;0.0353
737.0;0.0354
737.1;0.0353
737.2;0.0352
737.3;0.0355
737.4;0.0354
737.5;0.0355
737.6;0.0354
737.7;0.0355
737.8;0.0353
737.9;0.0354
738.0;0.0352
738.1;0.0355
738.2;0.0354
738.3;0.0353
738.4;0.0354
738.5;0.0353
738.6;0.0352
738.7;0.0355
738.8;0.0354
738.9;0.0354
739.0;0.0355
739.1;0.0354
739.2;0.0353
739.3;0.0354
739.4;0.0355
739.5;0.0356
739.6;0.0354
739.7;0.0353
739.8;0.0353
739.9;0.0355
740.0;0.0353
740.1;0.0355
740.2;0.0353
740.3;0.0354
740.4;0.0354
740.5;0.0353
740.6;0.0352
740.7;0.0354
740.8;0.0354
740.9;0.0354
741.0;0.0354
741.1;0.0354
741.2;0.0352
741.3;0.0355
741.4;0.0354
741.5;0.0355
741.6;0.0353
741.7;0.0355
741.8;0.0356
741.9;0.0354
742.0;0.0354
742.1;0.0355
742.2;0.0355
742.3;0.0354
742.4;0.0353
742.5;0.0353
742.6;0.0353
742.7;0.0353
742.8;0.0356
742.9;0.0354
743.0;0.0353
743.1;0.0355
743.2;0.0355
743.3;0.0352
743.4;0.0354
743.5;0.0351
743.6;0.0353
743.7;0.0354
743.8;0.0352
743.9;0.0354
744.0;0.0353
744.1;0.0355
744.2;0.0353
744.3;0.0354
744.4;0.0354
744.5;0.0353
744.6;0.0354
744.7;0.0353
744.8;0.0352
744.9;0.0354
745.0;0.0353
745.1;0.0354
745.2;0.0355
745.3;0.0353
745.4;0.0351
745.5;0.0352
745.6;0.0355
745.7;0.0355
745.8;0.0353
745.9;0.0354
746.0;0.0355
746.1;0.0354
746.2;0.0354
746.3;0.0354
746.4;0.0355
746.5;0.0353
746.6;0.0354
746.7;0.0353
746.8;0.0355
746.9;0.0352
747.0;0.0355
747.1;0.0353
747.2;0.0353
747.3;0.0353
747.4;0.0352
747.5;0.0355
747.6;0.0353
747.7;0.0352
747.8;0.0354
747.9;0.0352
748.0;0.0353
748.1;0.0354
748.2;0.0355
748.3;0.0354
748.4;0.0354
748.5;0.0352
748.6;0.0354
748.7;0.0354
748.8;0.0354
748.9;0.0355
749.0;0.0354
749.1;0.0354
749.2;0.0354
749.3;0.0354
749.4;0.0353
749.5;0.0354
749.6;0.0353
749.7;0.0353
749.8;0.0354
749.9;0.0354
750.0;0.0353
750.1;0.0353
750.2;0.0352
750.3;0.0353
750.4;0.0355
750.5;0.0354
750.6;0.0354
750.7;0.0356
750.8;0.0354
750.9;0.0353
751.0;0.0353
751.1;0.0354
751.2;0.0353
751.3;0.0353
751.4;0.0352
751.5;0.0354
751.6;0.0352
751.7;0.0350
751.8;0.0353
751.9;0.0350
752.0;0.0353
752.1;0.0354
752.2;0.0354
752.3;0.0353
752.4;0.0353
752.5;0.0354
752.6;0.0354
752.7;0.0354
752.8;0.0352
752.9;0.0353
753.0;0.0353
753.1;0.0353
753.2;0.0352
753.3;0.0354
753.4;0.0352
753.5;0.0353
753.6;0.0354
753.7;0.0351
753.8;0.0353
753.9;0.0352
754.0;0.0354
754.1;0.0355
754.2;0.0353
754.3;0.0355
754.4;0.0353
754.5;0.0354
754.6;0.0355
754.7;0.0351
754.8;0.0352
754.9;0.0354
755.0;0.0354
755.1;0.0354
755.2;0.0353
755.3;0.0353
755.4;0.0352
755.5;0.0354
755.6;0.0352
755.7;0.0354
755.8;0.0354
755.9;0.0352
756.0;0.0354
756.1;0.0351
756.2;0.0351
756.3;0.0353
756.4;0.0354
756.5;0.0354
756.6;0.0354
756.7;0.0353
756.8;0.0356
756.9;0.0352
757.0;0.0353
757.1;0.0355
757.2;0.0353
757.3;0.0353
757.4;0.0353
757.5;0.0353
757.6;0.0352
757.7;0.0351
757.8;0.0352
757.9;0.0352
758.0;0.0352
758.1;0.0354
758.2;0.0350
758.3;0.0350
758.4;0.0351
758.5;0.0351
758.6;0.0353
758.7;0.0352
758.8;0.0355
758.9;0.0351
759.0;0.0355
759.1;0.0351
759.2;0.0352
759.3;0.0353
759.4;0.0351
759.5;0.0351
759.6;0.0352
759.7;0.0352
759.8;0.0353
759.9;0.0354
760.0;0.0354
760.1;0.0353
760.2;0.0352
760.3;0.0354
760.4;0.0354
760.5;0.0354
760.6;0.0352
760.7;0.0353
760.8;0.0352
760.9;0.0353
761.0;0.0353
761.1;0.0353
761.2;0.0354
761.3;0.0355
761.4;0.0354
761.5;0.0352
761.6;0.0354
761.7;0.0354
761.8;0.0352
761.9;0.0354
762.0;0.0356
762.1;0.0354
762.2;0.0353
762.3;0.0353
762.4;0.0352
762.5;0.0354
762.6;0.0353
762.7;0.0351
762.8;0.0353
762.9;0.0353
763.0;0.0354
763.1;0.0352
763.2;0.0354
763.3;0.0354
763.4;0.0354
763.5;0.0353
763.6;0.0354
763.7;0.0353
763.8;0.0355
763.9;0.0352
764.0;0.0353
764.1;0.0353
764.2;0.0354
764.3;0.0352
764.4;0.0352
764.5;0.0352
764.6;0.0352
764.7;0.0352
764.8;0.0353
764.9;0.0351
765.0;0.0353
765.1;0.0354
765.2;0.0355
765.3;0.0353
765.4;0.0353
765.5;0.0353
765.6;0.0355
765.7;0.0353
765.8;0.0353
765.9;0.0354
766.0;0.0356
766.1;0.0352
766.2;0.0353
766.3;0.0354
766.4;0.0355
766.5;0.0352
766.6;0.0354
766.7;0.0354
766.8;0.0352
766.9;0.0352
767.0;0.0353
767.1;0.0355
767.2;0.0354
767.3;0.0356
767.4;0.0354
767.5;0.0352
767.6;0.0352
767.7;0.0353
767.8;0.0355
767.9;0.0354
768.0;0.0353
768.1;0.0353
768.2;0.0353
768.3;0.0352
768.4;0.0353
768.5;0.0354
768.6;0.0355
768.7;0.0355
768.8;0.0353
768.9;0.0354
769.0;0.0354
769.1;0.0354
769.2;0.0353
769.3;0.0354
769.4;0.0354
769.5;0.0354
769.6;0.0352
769.7;0.0353
769.8;0.0352
769.9;0.0355
770.0;0.0354
770.1;0.0353
770.2;0.0354
770.3;0.0353
770.4;0.0353
770.5;0.0353
770.6;0.0353
770.7;0.0354
770.8;0.0356
770.9;0.0354
771.0;0.0352
771.1;0.0353
771.2;0.0351
771.3;0.0354
771.4;0.0354
771.5;0.0353
771.6;0.0354
771.7;0.0355
771.8;0.0353
771.9;0.0352
772.0;0.0353
772.1;0.0354
772.2;0.0353
772.3;0.0353
772.4;0.0355
772.5;0.0352
772.6;0.0353
772.7;0.0353
772.8;0.0356
772.9;0.0353
773.0;0.0353
773.1;0.0354
773.2;0.0353
773.3;0.0354
773.4;0.0355
773.5;0.0355
773.6;0.0352
773.7;0.0354
773.8;0.0354
773.9;0.0355
774.0;0.0353
774.1;0.0355
774.2;0.0353
774.3;0.0352
774.4;0.0354
774.5;0.0350
774.6;0.0353
774.7;0.0353
774.8;0.0353
774.9;0.0352
775.0;0.0351
775.1;0.0353
775.2;0.0354
775.3;0.0353
775.4;0.0354
775.5;0.0354
775.6;0.0352
775.7;0.0354
775.8;0.0353
775.9;0.0354
776.0;0.0350
776.1;0.0351
776.2;0.0354
776.3;0.0353
776.4;0.0351
776.5;0.0353
776.6;0.0352
776.7;0.0353
776.8;0.0355
776.9;0.0351
777.0;0.0355
777.1;0.0351
777.2;0.0354
777.3;0.0356
777.4;0.0353
777.5;0.0352
777.6;0.0352
777.7;0.0354
777.8;0.0352
777.9;0.0352
778.0;0.0352
778.1;0.0353
778.2;0.0353
778.3;0.0352
778.4;0.0354
778.5;0.0351
778.6;0.0351
778.7;0.0355
778.8;0.0353
778.9;0.0353
779.0;0.0351
779.1;0.0354
779.2;0.0351
779.3;0.0352
779.4;0.0352
779.5;0.0353
779.6;0.0354
779.7;0.0353
779.8;0.0353
779.9;0.0352
780.0;0.0352
780.1;0.0354
780.2;0.0354
780.3;0.0351
780.4;0.0351
780.5;0.0352
780.6;0.0351
780.7;0.0354
780.8;0.0354
780.9;0.0351
781.0;0.0353
781.1;0.0353
781.2;0.0354
781.3;0.0353
781.4;0.0354
781.5;0.0351
781.6;0.0353
781.7;0.0351
781.8;0.0352
781.9;0.0353
782.0;0.0350
782.1;0.0351
782.2;0.0353
782.3;0.0352
782.4;0.0351
782.5;0.0352
782.6;0.0354
782.7;0.0354
782.8;0.0353
782.9;0.0354
783.0;0.0353
783.1;0.0353
783.2;0.0354
783.3;0.0353
783.4;0.0350
783.5;0.0352
783.6;0.0351
783.7;0.0353
783.8;0.0353
783.9;0.0352
784.0;0.0353
784.1;0.0352
784.2;0.0352
784.3;0.0353
784.4;0.0354
784.5;0.0353
784.6;0.0353
784.7;0.0351
784.8;0.0354
784.9;0.0353
785.0;0.0354
785.1;0.0351
785.2;0.0355
785.3;0.0351
785.4;0.0353
785.5;0.0353
785.6;0.0350
785.7;0.0352
785.8;0.0354
785.9;0.0355
786.0;0.0352
786.1;0.0353
786.2;0.0353
786.3;0.0353
786.4;0.0352
786.5;0.0352
786.6;0.0352
786.7;0.0352
786.8;0.0354
786.9;0.0353
787.0;0.0353
787.1;0.0353
787.2;0.0353
787.3;0.0354
787.4;0.0352
787.5;0.0352
787.6;0.0355
787.7;0.0352
787.8;0.0354
787.9;0.0352
788.0;0.0354
788.1;0.0354
788.2;0.0351
788.3;0.0351
788.4;0.0351
788.5;0.0351
788.6;0.0351
788.7;0.0354
788.8;0.0352
788.9;0.0353
789.0;0.0353
789.1;0.0354
789.2;0.0353
789.3;0.0353
789.4;0.0353
789.5;0.0354
789.6;0.0354
789.7;0.0353
789.8;0.0354
789.9;0.0353
790.0;0.0353
790.1;0.0353
790.2;0.0353
790.3;0.0353
790.4;0.0352
790.5;0.0352
790.6;0.0353
790.7;0.0354
790.8;0.0354
790.9;0.0355
791.0;0.0352
791.1;0.0353
791.2;0.0352
791.3;0.0353
791.4;0.0352
791.5;0.0352
791.6;0.0354
791.7;0.0354
791.8;0.0353
791.9;0.0354
792.0;0.0353
792.1;0.0350
792.2;0.0350
792.3;0.0353
792.4;0.0354
792.5;0.0351
792.6;0.0353
792.7;0.0354
792.8;0.0353
792.9;0.0352
793.0;0.0355
793.1;0.0353
793.2;0.0352
793.3;0.0350
793.4;0.0352
793.5;0.0354
793.6;0.0350
793.7;0.0352
793.8;0.0351
793.9;0.0354
794.0;0.0353
794.1;0.0353
794.2;0.0353
794.3;0.0354
794.4;0.0353
794.5;0.0351
794.6;0.0352
794.7;0.0351
794.8;0.0352
794.9;0.0351
795.0;0.0350
795.1;0.0352
795.2;0.0352
795.3;0.0354
795.4;0.0354
795.5;0.0350
795.6;0.0352
795.7;0.0353
795.8;0.0352
795.9;0.0351
796.0;0.0351
796.1;0.0352
796.2;0.0352
796.3;0.0350
796.4;0.0351
796.5;0.0353
796.6;0.0353
796.7;0.0351
796.8;0.0351
796.9;0.0351
797.0;0.0353
797.1;0.0353
797.2;0.0352
797.3;0.0349
797.4;0.0353
797.5;0.0350
797.6;0.0352
797.7;0.0352
797.8;0.0354
797.9;0.0352
798.0;0.0353
798.1;0.0355
798.2;0.0351
798.3;0.0352
798.4;0.0352
798.5;0.0353
798.6;0.0353
798.7;0.0354
798.8;0.0351
798.9;0.0352
799.0;0.0352
799.1;0.0351
799.2;0.0354
799.3;0.0354
799.4;0.0354
799.5;0.0351
799.6;0.0352
799.7;0.0355
799.8;0.0354
799.9;0.0353
800.0;0.0353
